EEG1, EEG2, EEG3, EEG4, EEG5, Eyes
913.8461,860.2564,842.9304,900.9524,893.6996,0
892.4908,861.0623,846.1539,873.1502,888.8644,0
823.5897,863.0769,853.8095,813.5165,823.9927,0
823.5897,864.2857,844.9451,816.7399,852.1978,0
869.9268,858.6447,845.7509,862.2711,826.4103,0
911.4286,853.4066,851.392,902.967,923.9194,0
898.5348,860.2564,848.5714,883.2234,946.0806,0
831.6484,869.5238,851.7949,815.9341,870.7326,0
819.1575,864.6887,849.7802,809.0842,826.4103,0
861.4652,859.0476,843.3333,858.2418,783.6996,0
919.0842,862.2711,840.9158,913.0403,863.4799,0
916.2637,867.1062,847.7656,905.3846,911.0256,0
851.392,871.5385,861.8681,842.9304,805.4579,0
831.6484,868.315,859.0476,834.4689,764.7619,0
866.3004,865.0916,842.9304,872.3443,797.8022,0
922.7106,865.8975,832.0513,913.0403,896.5201,0
929.1575,870.3297,838.9011,906.1905,917.0696,0
869.1208,872.3443,854.2125,853.8095,803.8461,0
838.0952,870.3297,855.8242,826.0073,822.381,0
865.8975,867.1062,848.5714,844.5421,838.4982,0
926.337,863.4799,841.7216,903.7729,902.967,0
936.0073,869.1208,841.7216,908.608,953.7363,0
871.5385,874.7619,848.9744,842.9304,843.7363,0
832.8571,874.7619,853.4066,815.9341,820.7692,0
853.4066,870.7326,846.5568,844.1392,829.6337,0
912.6374,867.9121,836.8865,892.8938,847.7656,0
935.6044,872.7473,841.3187,908.2051,925.1282,0
879.1942,875.1649,853.4066,856.6301,869.9268,0
834.8718,873.1502,861.0623,824.7985,800.6227,0
852.1978,871.1356,853.0037,850.5861,813.9194,0
908.2051,869.9268,840.5128,900.5494,867.5092,0
933.9927,872.7473,840.9158,917.0696,945.2747,0
882.0146,877.9854,852.1978,872.7473,915.8608,0
826.8132,877.9854,857.4359,828.4249,841.7216,0
834.8718,870.3297,854.2125,841.7216,844.1392,0
885.6411,864.6887,844.5421,890.4762,898.5348,0
920.696,866.7033,840.1099,918.6813,926.337,0
884.8351,874.3589,851.7949,878.3883,885.6411,0
823.5897,874.3589,858.2418,816.337,855.8242,0
824.3956,865.8975,851.392,828.8278,844.9451,0
875.9707,862.2711,848.1685,877.5824,807.0696,0
918.6813,867.5092,846.5568,904.9817,900.1465,0
889.6703,871.1356,850.1832,875.5677,903.3699,0
812.3077,866.3004,858.2418,809.4872,818.3516,0
813.9194,867.9121,857.4359,812.7106,855.4213,0
877.9854,875.1649,846.5568,870.3297,831.6484,0
922.3077,876.3736,840.1099,907.3993,917.4725,0
897.326,875.1649,849.7802,876.7766,933.5897,0
828.4249,877.1795,857.4359,813.9194,850.1832,0
819.5604,874.3589,850.5861,814.3223,836.4835,0
859.8535,865.8975,843.7363,852.6007,816.337,0
908.2051,863.8828,838.4982,892.0879,917.0696,0
899.3406,869.5238,846.1539,880.8058,913.4432,0
834.4689,871.5385,861.8681,823.9927,828.8278,0
813.5165,864.2857,862.2711,813.1135,877.9854,0
847.3626,862.674,855.0183,856.6301,803.0403,0
904.5787,866.7033,846.5568,904.1758,830.4396,0
902.5641,870.7326,851.392,891.282,956.5568,0
834.8718,872.3443,866.3004,834.4689,873.1502,0
806.2637,865.8975,863.0769,813.9194,808.2784,0
834.8718,864.6887,855.4213,844.5421,784.5055,0
885.6411,866.3004,843.3333,886.4469,846.9597,0
889.2674,864.6887,847.3626,882.0146,921.0989,0
844.5421,883.6264,875.5677,834.8718,819.1575,0
819.9634,891.685,866.3004,811.0989,800.2198,0
846.1539,875.9707,860.2564,842.5275,847.3626,0
900.1465,872.3443,859.4506,885.2381,899.3406,0
894.9084,872.3443,847.3626,871.1356,960.5861,0
832.8571,876.7766,862.674,816.7399,861.8681,0
802.6374,889.6703,886.0439,794.5787,820.7692,0
802.2344,880.403,878.3883,799.011,858.6447,0
847.3626,873.1502,864.6887,837.6923,848.9744,0
869.9268,887.2527,873.5531,849.3773,891.685,0
794.1758,889.6703,884.8351,780.4762,851.392,0
739.7802,894.1025,897.7289,736.1539,796.9963,0
749.8535,892.8938,898.5348,748.2418,809.0842,0
782.4908,883.2234,886.0439,777.6557,864.6887,0
809.0842,891.282,888.4615,795.7875,932.381,0
757.1062,902.1612,893.2967,742.1978,911.0256,0
693.4432,911.4286,898.5348,690.2198,842.1245,0
686.9963,900.5494,894.9084,690.2198,830.0366,0
719.6337,894.5055,878.3883,713.5897,865.0916,0
755.0916,908.608,877.5824,743.8095,937.2161,0
715.2015,915.4579,891.282,704.3223,883.6264,0
652.7473,921.0989,897.326,646.3004,834.4689,0
657.9854,917.4725,891.685,657.1795,870.7326,0
705.9341,911.0256,885.2381,708.7546,820.7692,0
749.4506,908.608,880.8058,749.8535,887.2527,0
735.348,913.0403,889.6703,727.2894,912.6374,0
678.9377,917.0696,895.7143,677.7289,826.4103,0
686.1905,912.6374,891.685,698.6813,805.8608,0
739.7802,907.3993,884.4323,742.6007,852.1978,0
797.3993,907.3993,875.9707,782.8938,965.8242,0
791.7582,909.8168,880.403,775.2381,948.0952,0
734.1392,911.8315,892.4908,723.663,865.0916,0
721.2454,906.9963,889.2674,721.2454,881.6117,0
761.5385,899.3406,880.403,760.7326,833.663,0
819.5604,893.2967,868.718,815.5311,863.4799,0
815.1282,892.4908,867.9121,805.8608,914.2491,0
753.0769,893.2967,878.7912,741.7949,841.3187,0
733.7363,887.6557,874.7619,731.7216,871.9414,0
775.6411,884.4323,865.8975,774.4323,837.2894,0
839.707,885.2381,854.6154,834.0659,896.1172,0
846.5568,886.4469,850.5861,832.4542,952.5275,0
789.7436,885.6411,862.2711,777.6557,850.5861,0
772.0146,885.2381,864.6887,779.6703,807.8755,0
810.696,883.2234,854.6154,823.5897,796.1905,0
875.5677,876.7766,844.1392,874.7619,887.2527,0
890.4762,875.5677,840.9158,881.6117,931.978,0
838.4982,876.3736,843.7363,830.0366,825.6044,0
811.9048,872.3443,845.7509,811.0989,844.5421,0
845.348,869.9268,844.1392,848.5714,820.7692,0
913.8461,869.9268,837.6923,913.0403,827.2161,0
942.8571,872.7473,840.5128,935.6044,917.4725,0
892.0879,876.7766,851.7949,880.403,888.4615,0
849.3773,875.5677,859.4506,836.8865,843.7363,0
861.4652,869.1208,854.6154,854.2125,835.2747,0
911.0256,862.674,844.9451,905.3846,800.6227,0
939.2308,869.5238,846.1539,929.5604,904.1758,0
889.2674,878.3883,856.2271,877.1795,892.8938,0
836.8865,876.3736,865.0916,828.8278,793.3699,0
848.1685,871.5385,858.2418,843.7363,816.337,0
897.326,872.3443,848.9744,895.3113,805.4579,0
932.7839,875.5677,849.7802,925.1282,894.5055,0
895.3113,877.1795,860.2564,880,886.4469,0
835.6777,874.7619,869.5238,824.3956,806.2637,0
838.4982,872.3443,863.8828,835.2747,862.2711,0
886.4469,869.1208,854.6154,884.4323,873.1502,0
932.381,869.9268,851.7949,915.4579,897.7289,0
909.8168,876.3736,858.6447,890.8792,868.315,0
843.3333,877.9854,864.2857,832.8571,802.6374,0
838.9011,871.5385,861.0623,834.8718,792.967,0
887.2527,867.1062,851.7949,884.8351,790.5494,0
932.7839,869.9268,844.5421,916.2637,885.6411,0
906.5934,871.5385,848.5714,886.4469,902.1612,0
836.4835,870.3297,856.2271,826.8132,801.4286,0
829.6337,866.7033,854.2125,824.7985,782.0879,0
869.1208,864.2857,846.5568,863.8828,805.8608,0
919.4872,865.8975,839.304,911.0256,912.2344,0
910.6227,865.4945,839.707,897.326,932.381,0
840.5128,863.0769,852.1978,830.4396,830.8425,0
830.0366,862.2711,855.8242,825.2015,770.403,0
864.6887,857.8388,844.1392,865.4945,786.1172,0
912.6374,854.2125,833.663,905.7875,887.6557,0
915.0549,862.2711,834.0659,902.5641,909.011,0
855.8242,868.315,844.1392,841.7216,853.4066,0
837.6923,865.4945,848.9744,819.1575,841.3187,0
872.7473,864.2857,842.1245,860.2564,828.022,0
934.7985,869.9268,839.707,918.6813,887.2527,0
936.8132,875.1649,848.5714,926.7399,924.3223,0
856.6301,865.8975,846.1539,859.4506,868.718,0
809.4872,850.989,832.0513,812.7106,815.9341,0
832.0513,841.3187,814.7253,836.0806,807.8755,0
887.2527,831.6484,795.7875,886.4469,878.3883,0
877.5824,821.5751,787.326,869.9268,984.7619,0
797.3993,811.0989,786.1172,797.3993,888.4615,0
760.7326,805.8608,784.5055,771.6117,842.9304,0
782.0879,805.0549,776.0439,793.3699,891.685,0
837.2894,801.4286,764.7619,841.7216,863.4799,0
857.8388,801.8315,765.5677,854.6154,902.1612,0
810.696,806.2637,774.8351,801.8315,869.9268,0
769.597,803.8461,776.8498,763.1502,833.2601,0
783.2967,800.6227,771.2088,788.9377,786.5201,0
837.6923,794.1758,761.5385,840.9158,823.5897,0
869.1208,794.9817,758.718,864.6887,952.5275,0
827.2161,801.0256,769.1942,821.1722,941.2454,0
767.9854,797.8022,773.6264,770.403,856.2271,0
778.4615,792.967,768.7912,788.9377,815.1282,0
838.0952,790.5494,761.1356,850.1832,864.2857,0
878.3883,790.9524,757.5092,881.6117,936.8132,0
845.348,795.7875,765.1649,839.304,872.3443,0
792.5641,798.608,776.4469,786.5201,807.0696,0
799.4139,794.9817,776.8498,798.2051,850.989,0
842.1245,791.7582,767.9854,839.707,865.4945,0
878.3883,789.3406,763.5531,868.718,925.1282,0
852.1978,791.7582,772.8205,841.7216,936.8132,0
791.3553,796.1905,782.0879,778.8644,865.0916,0
792.1612,794.9817,780.0732,784.5055,823.9927,0
845.348,795.3846,776.4469,839.707,800.2198,0
898.5348,801.4286,776.8498,887.2527,891.282,0
880.403,806.2637,784.9084,867.5092,925.5311,0
812.3077,805.0549,795.7875,805.0549,873.1502,0
804.652,803.8461,796.1905,805.4579,824.3956,0
845.7509,807.0696,789.7436,846.1539,758.718,0
899.7436,811.0989,785.3113,888.0586,873.5531,0
892.8938,815.5311,789.7436,876.3736,967.8388,0
825.2015,816.7399,800.2198,815.1282,902.967,0
816.7399,819.9634,805.0549,797.8022,858.2418,0
855.8242,823.5897,804.2491,838.0952,838.4982,0
903.3699,826.0073,799.011,892.0879,898.9377,0
911.4286,832.0513,803.4432,887.6557,906.1905,0
853.0037,834.8718,815.5311,830.8425,834.8718,0
822.7839,833.2601,818.3516,809.0842,832.0513,0
853.4066,836.0806,815.1282,844.1392,808.2784,0
908.2051,838.4982,810.696,899.3406,824.3956,0
913.0403,839.304,815.9341,896.1172,915.0549,0
848.5714,846.1539,831.2454,841.7216,882.0146,0
812.3077,847.7656,834.4689,817.1429,864.6887,0
842.9304,846.1539,828.8278,842.9304,831.6484,0
906.9963,850.989,823.5897,896.5201,841.7216,0
922.3077,854.2125,820.7692,905.3846,927.5458,0
868.315,860.6594,832.0513,854.2125,829.2308,0
826.4103,864.6887,843.3333,824.3956,828.8278,0
845.7509,863.8828,841.7216,847.7656,874.3589,0
902.1612,863.4799,833.663,903.7729,840.1099,0
925.5311,867.1062,836.0806,927.1429,891.282,0
882.4176,876.3736,849.7802,875.9707,862.2711,0
838.9011,880.403,861.8681,836.4835,804.2491,0
866.7033,890.8792,876.3736,868.315,778.4615,0
934.3956,905.3846,882.4176,933.5897,817.5458,0
978.315,910.6227,885.2381,965.0183,899.3406,0
943.663,915.0549,897.7289,921.5018,823.9927,0
887.6557,923.9194,910.6227,874.7619,772.8205,0
910.6227,938.4249,922.3077,902.967,829.6337,0
988.7912,960.989,938.8278,976.7033,797.8022,0
1062.93,997.2527,965.8242,1036.337,836.0806,0
1061.319,1031.099,998.8644,1029.487,897.326,0
1017.802,1048.022,1024.249,990.403,836.0806,0
1025.055,1051.648,1031.905,1008.132,826.0073,0
1070.989,1048.022,1025.055,1059.304,786.5201,0
1104.835,1038.755,1008.938,1083.883,862.2711,0
1066.557,1029.084,1000.879,1044.396,886.4469,0
989.1942,1019.011,998.0586,974.2857,751.4652,0
972.674,1007.729,988.7912,966.2271,760.3297,0
1010.147,1003.297,981.9414,1008.132,813.1135,0
1063.333,1011.758,983.5531,1056.484,900.9524,0
1084.689,1048.022,1020.623,1070.183,907.8022,0
1050.843,1083.48,1067.363,1044.396,803.0403,0
1044.799,1092.747,1081.868,1045.604,797.8022,0
1087.912,1093.15,1078.645,1084.689,811.0989,0
1149.56,1098.791,1073.004,1141.099,882.8205,0
1163.663,1113.7,1085.897,1146.74,894.1025,0
1116.52,1131.026,1111.282,1101.209,806.2637,0
1105.238,1140.293,1122.967,1093.956,794.5787,0
1139.487,1136.264,1120.146,1126.996,787.326,0
1195.897,1135.055,1114.505,1179.78,888.8644,0
1205.971,1144.725,1122.161,1184.212,887.2527,0
1148.755,1151.172,1136.264,1128.608,795.3846,0
1126.593,1157.619,1145.531,1109.67,777.6557,0
1167.289,1171.319,1158.828,1154.396,766.3736,0
1236.593,1187.033,1169.304,1222.894,797.8022,0
1249.084,1195.897,1173.736,1231.355,859.8535,0
1191.062,1193.883,1177.766,1172.125,796.5934,0
1151.575,1187.436,1178.974,1139.084,763.5531,0
1169.304,1183.004,1174.945,1166.886,774.0293,0
1221.685,1178.168,1165.275,1217.656,831.2454,0
1237.399,1175.751,1156.41,1228.938,902.5641,0
1180.586,1173.736,1154.799,1168.095,832.0513,0
1130.623,1169.304,1159.231,1130.623,814.3223,0
1146.74,1162.051,1155.604,1146.74,810.696,0
1187.839,1146.337,1132.637,1175.751,818.7546,0
1210,1147.143,1123.773,1201.941,867.9121,0
1177.363,1165.275,1143.516,1171.722,862.2711,0
1133.04,1171.722,1156.813,1124.579,832.8571,0
1143.114,1167.692,1151.978,1139.89,795.3846,0
1189.854,1164.066,1140.696,1188.645,780.0732,0
1224.103,1164.469,1134.249,1215.238,867.1062,0
1185.824,1164.066,1140.696,1180.586,918.2784,0
1119.341,1158.828,1146.337,1112.491,824.3956,0
1123.773,1157.216,1145.531,1117.729,805.4579,0
1177.766,1161.648,1140.696,1168.901,826.8132,0
1217.656,1165.275,1133.443,1196.3,886.8498,0
1190.659,1166.484,1135.055,1163.663,909.011,0
1124.579,1165.678,1140.293,1106.447,869.1208,0
1115.311,1159.231,1132.637,1109.67,869.5238,0
1158.828,1155.604,1119.341,1150.769,807.8755,0
1210.403,1156.813,1115.714,1192.271,891.685,0
1197.509,1157.216,1125.385,1179.377,904.1758,0
1136.667,1164.066,1142.711,1129.414,782.4908,0
1134.249,1168.901,1149.963,1132.637,838.9011,0
1174.945,1164.066,1142.711,1177.766,841.3187,0
1224.103,1160.037,1133.04,1220.879,882.8205,0
1212.418,1160.037,1133.846,1202.747,940.0366,0
1141.905,1157.216,1141.905,1132.234,834.8718,0
1118.938,1148.755,1135.458,1115.714,830.4396,0
1144.322,1137.473,1118.938,1146.337,851.392,0
1222.491,1161.648,1138.278,1216.447,881.2088,0
1284.139,1222.894,1200.733,1272.454,877.5824,0
1246.667,1249.487,1238.205,1236.593,808.6813,0
1208.388,1237.399,1230.146,1199.121,817.1429,0
1238.608,1237.802,1222.491,1231.758,814.7253,0
1306.703,1253.919,1224.505,1294.212,840.9158,0
1307.912,1255.128,1223.7,1290.989,874.3589,0
1232.161,1245.458,1216.447,1215.238,828.8278,0
1199.927,1247.07,1217.253,1180.183,798.608,0
1226.117,1251.502,1220.073,1215.238,745.0183,0
1278.095,1243.04,1205.165,1266.813,834.8718,0
1288.974,1238.205,1199.121,1267.619,921.0989,0
1223.297,1233.37,1204.359,1207.985,859.8535,0
1173.333,1221.685,1201.538,1173.333,815.1282,0
1181.795,1209.597,1186.63,1189.048,833.663,0
1229.341,1195.495,1165.678,1226.52,881.2088,0
1241.026,1181.392,1151.978,1231.758,927.5458,0
1174.945,1167.289,1143.919,1170.11,892.4908,0
1116.52,1154.396,1137.07,1117.326,887.6557,0
1122.564,1142.711,1124.982,1123.37,864.6887,0
1160.843,1128.205,1101.612,1156.813,837.2894,0
1176.154,1118.132,1088.718,1170.916,924.3223,0
1129.817,1110.073,1088.315,1119.341,929.1575,0
1060.11,1093.553,1080.256,1052.454,898.9377,0
1052.051,1077.839,1062.125,1050.843,895.3113,0
1094.359,1072.601,1048.425,1091.135,844.1392,0
1122.564,1071.392,1038.755,1110.476,923.5165,0
1086.3,1070.586,1041.172,1069.78,914.652,0
1025.861,1069.78,1047.619,1010.952,857.4359,0
1032.711,1071.392,1047.619,1023.443,883.2234,0
1082.271,1073.004,1043.59,1076.227,861.0623,0
1126.996,1074.615,1033.919,1101.612,960.1832,0
1122.967,1095.568,1055.275,1086.703,952.5275,0
1075.824,1118.535,1091.538,1058.095,823.1868,0
1075.421,1122.161,1099.194,1070.183,818.3516,0
1127.399,1128.205,1102.015,1124.982,832.8571,0
1193.48,1145.128,1111.685,1181.392,917.0696,0
1210.403,1172.93,1139.89,1187.839,905.3846,0
1165.275,1189.048,1166.081,1144.725,823.9927,0
1157.216,1193.077,1170.513,1145.128,802.6374,0
1206.374,1202.344,1174.542,1198.315,796.1905,0
1265.604,1207.582,1170.513,1252.308,839.707,0
1259.56,1210.806,1173.333,1243.04,919.8901,0
1207.985,1223.297,1194.286,1185.421,859.4506,0
1229.341,1261.172,1230.549,1207.985,749.8535,0
1300.659,1295.421,1260.769,1280.916,761.5385,0
1367.546,1305.897,1260.769,1339.744,841.7216,0
1365.128,1305.897,1257.546,1336.52,857.033,0
1304.689,1310.33,1273.26,1278.095,778.4615,0
1299.451,1330.879,1303.48,1279.707,742.1978,0
1354.249,1355.458,1330.073,1337.326,712.7839,0
1421.941,1364.725,1331.685,1398.571,748.2418,0
1430.806,1362.711,1327.656,1398.168,855.4213,0
1371.172,1362.711,1337.729,1338.938,824.7985,0
1336.52,1364.725,1345.788,1311.538,745.8242,0
1365.128,1371.172,1352.637,1346.19,747.4359,0
1450.146,1397.363,1372.381,1426.374,745.4213,0
1519.451,1449.341,1415.897,1486.007,772.0146,0
1489.231,1480.366,1450.549,1462.234,724.0659,0
1440.073,1478.755,1454.579,1423.15,661.2088,0
1441.282,1463.846,1440.879,1431.612,716.8132,0
1475.531,1448.132,1413.883,1461.832,789.3406,0
1502.527,1444.908,1406.63,1484.396,837.2894,0
1462.234,1443.297,1414.689,1440.879,770.403,0
1392.125,1428.791,1409.451,1380.843,745.4213,0
1384.872,1410.659,1394.139,1382.857,773.6264,0
1423.15,1394.945,1373.59,1416.703,846.9597,0
1444.103,1383.26,1354.652,1433.626,948.9011,0
1397.766,1373.59,1345.788,1386.081,899.3406,0
1328.462,1361.905,1339.744,1317.582,836.8865,0
1322.418,1348.205,1324.432,1313.553,846.1539,0
1361.905,1332.894,1307.106,1342.967,857.4359,0
1392.93,1320.403,1291.795,1363.114,937.2161,0
1342.564,1305.092,1276.081,1313.553,911.4286,0
1263.59,1293.81,1276.484,1247.473,846.9597,0
1247.473,1278.095,1270.037,1240.623,880.403,0
1269.634,1256.74,1245.055,1263.187,849.3773,0
1299.854,1244.652,1222.088,1286.154,936.0073,0
1269.634,1235.788,1217.253,1251.905,968.2418,0
1199.524,1232.161,1227.326,1189.048,860.2564,0
1191.062,1231.758,1225.311,1182.198,863.8828,0
1228.535,1228.938,1215.238,1222.894,904.9817,0
1284.945,1232.967,1214.432,1274.872,939.2308,0
1286.154,1249.487,1231.758,1274.469,930.3663,0
1232.564,1265.201,1258.352,1227.729,840.9158,0
1224.505,1267.216,1262.784,1221.282,852.1978,0
1264.396,1265.201,1252.711,1258.352,873.5531,0
1315.971,1261.978,1240.623,1304.689,938.4249,0
1307.912,1259.157,1231.758,1295.824,991.6117,0
1242.234,1253.919,1234.579,1228.535,949.707,0
1212.418,1245.055,1234.579,1208.388,914.652,0
1250.696,1251.099,1238.205,1249.89,870.7326,0
1326.85,1268.828,1247.473,1307.912,907.3993,0
1349.414,1286.96,1260.769,1322.821,956.1539,0
1299.451,1298.242,1277.692,1274.066,852.6007,0
1271.648,1298.242,1282.527,1248.681,801.8315,0
1288.974,1294.615,1276.081,1274.872,859.4506,0
1333.297,1289.78,1264.396,1320,906.5934,0
1349.414,1294.212,1265.604,1328.462,911.8315,0
1304.689,1305.897,1283.736,1277.289,854.6154,0
1264.799,1303.883,1290.586,1244.652,816.7399,0
1269.634,1292.198,1278.498,1264.396,827.2161,0
1330.073,1294.615,1272.857,1319.194,869.1208,0
1377.216,1316.374,1289.78,1351.429,895.7143,0
1344.579,1337.729,1314.762,1318.388,863.4799,0
1307.509,1349.414,1334.505,1299.451,831.6484,0
1327.656,1354.652,1342.967,1337.729,814.3223,0
1384.066,1354.652,1338.535,1388.498,802.2344,0
1436.85,1374.799,1352.234,1424.359,854.6154,0
1423.553,1398.974,1382.051,1407.436,784.5055,0
1386.886,1412.674,1405.421,1376.813,704.7253,0
1407.839,1423.553,1415.495,1406.63,720.8425,0
1463.443,1422.344,1403.004,1456.593,738.5714,0
1503.333,1420.33,1388.095,1477.546,838.4982,0
1474.725,1423.15,1393.736,1436.447,846.9597,0
1408.645,1423.553,1400.586,1380.037,782.8938,0
1400.183,1415.495,1392.125,1383.663,800.6227,0
1436.447,1404.615,1379.231,1416.703,834.0659,0
1493.663,1423.553,1390.11,1464.249,852.6007,0
1513.407,1469.487,1434.432,1482.784,849.3773,0
1467.07,1489.231,1473.516,1449.341,758.315,0
1459.011,1481.978,1474.322,1445.311,706.7399,0
1488.828,1468.278,1454.579,1476.337,711.1722,0
1517.839,1453.37,1434.835,1501.722,801.8315,0
1487.216,1442.491,1426.777,1471.502,863.0769,0
1412.674,1430,1421.538,1399.377,794.9817,0
1392.527,1416.703,1411.062,1381.648,825.2015,0
1413.883,1401.795,1396.96,1410.256,844.5421,0
1439.67,1377.619,1363.516,1433.223,913.0403,0
1416.3,1362.308,1341.355,1405.421,957.3626,0
1344.982,1349.817,1340.952,1335.311,898.1319,0
1307.106,1326.447,1324.835,1299.854,886.0439,0
1319.194,1301.465,1295.018,1311.135,856.6301,0
1360.696,1284.139,1268.828,1348.608,950.1099,0
1356.264,1278.498,1257.949,1332.088,975.8975,0
1289.377,1272.857,1259.963,1260.769,829.6337,0
1243.04,1258.352,1247.473,1224.908,812.7106,0
1245.055,1236.996,1223.297,1237.399,895.3113,0
1286.154,1224.103,1203.15,1278.498,1017.399,0
1257.143,1189.048,1162.051,1243.443,1056.484,0
1135.458,1127.802,1107.253,1126.19,954.5421,0
1063.736,1089.121,1074.615,1060.11,922.7106,0
1060.513,1061.722,1048.022,1058.095,915.4579,0
1099.194,1043.993,1024.249,1089.121,965.4213,0
1106.044,1035.128,1011.355,1086.3,1003.297,0
1043.993,1031.905,1015.385,1027.473,983.1502,0
990,1025.055,1012.967,980.7326,972.2711,0
988.3883,1012.564,1000.073,990.8058,940.4396,0
1034.725,1005.311,983.1502,1038.352,967.8388,0
1062.125,1006.923,977.9121,1059.304,1018.608,0
1019.414,1010.147,989.597,1004.103,996.8498,0
966.6301,1005.311,992.8205,950.1099,916.2637,0
972.2711,999.6703,983.9561,969.4506,895.3113,0
1021.429,994.4323,968.2418,1015.788,934.3956,0
1057.692,991.2088,958.1685,1037.143,978.315,0
1021.831,992.0146,964.2125,1000.476,958.9744,0
958.9744,988.7912,971.8681,951.3187,922.3077,0
956.9597,979.1208,965.4213,958.1685,867.9121,0
996.8498,968.2418,946.0806,993.6264,895.3113,0
1033.919,965.0183,931.978,1017.399,970.6594,0
1006.923,967.4359,938.022,984.3589,921.5018,0
938.4249,965.0183,944.0659,923.1135,892.8938,0
929.1575,958.9744,935.6044,923.9194,936.4103,0
967.033,953.7363,931.1722,962.1978,912.2344,0
1010.549,954.1392,925.1282,996.8498,952.1245,0
1007.326,968.6447,936.8132,982.3443,968.6447,0
946.4835,973.8828,952.1245,933.5897,893.6996,0
927.5458,965.0183,945.6777,929.5604,856.2271,0
963.4066,960.1832,937.2161,965.8242,853.0037,0
1010.147,958.5714,934.7985,1006.923,911.4286,0
998.8644,963.4066,939.6337,992.0146,961.7949,0
935.6044,967.8388,946.4835,930.3663,895.7143,0
920.696,963.4066,944.8718,914.652,883.6264,0
955.7509,960.989,938.022,951.7216,900.9524,0
1007.729,960.989,928.7546,998.0586,946.0806,0
1007.326,963.4066,932.381,992.4176,966.2271,0
950.1099,970.6594,946.4835,939.2308,905.7875,0
925.5311,965.8242,947.6923,917.0696,890.4762,0
943.663,954.5421,939.6337,945.2747,895.7143,0
999.2674,952.5275,930.3663,996.0439,901.7582,0
1011.355,956.9597,928.7546,993.2234,952.5275,0
947.6923,958.1685,936.8132,938.022,881.6117,0
907.8022,952.5275,935.2015,915.8608,865.4945,0
925.5311,945.2747,925.1282,938.8278,887.6557,0
979.1208,938.4249,913.4432,982.3443,887.2527,0
990.8058,938.8278,911.4286,987.5824,954.1392,0
935.2015,941.6484,919.8901,937.619,901.3553,0
896.5201,939.2308,922.3077,900.5494,868.315,0
919.8901,941.2454,919.4872,917.8755,858.6447,0
980.7326,946.4835,914.2491,972.674,869.1208,0
1006.52,954.5421,918.6813,997.2527,923.5165,0
975.8975,975.8975,948.0952,964.6154,896.5201,0
983.1502,1028.278,1006.923,973.0769,849.7802,0
1042.381,1069.78,1046.41,1037.949,804.652,0
1102.015,1074.212,1045.604,1093.956,809.8901,0
1134.249,1080.256,1043.993,1113.7,893.6996,0
1088.315,1082.674,1051.245,1075.018,867.5092,0
1031.502,1077.033,1058.901,1019.414,811.9048,0
1033.919,1070.989,1050.843,1026.264,840.9158,0
1079.451,1065.348,1037.546,1068.974,836.4835,0
1117.326,1065.751,1029.084,1090.733,842.9304,0
1078.242,1062.125,1028.278,1052.454,886.8498,0
1006.923,1055.678,1037.143,997.2527,810.293,0
1004.103,1047.216,1026.264,1000.879,788.5348,0
1046.41,1036.337,1009.744,1041.575,851.392,0
1087.509,1030.696,1000.879,1064.945,899.3406,0
1072.601,1032.711,1002.894,1033.919,912.6374,0
1006.923,1032.308,1014.579,981.1356,874.3589,0
990.8058,1019.414,1006.52,972.2711,859.0476,0
1018.608,1001.282,984.3589,999.6703,859.4506,0
1056.081,990.403,966.2271,1031.502,936.0073,0
1038.352,990.403,967.033,1009.744,942.8571,0
971.8681,992.0146,977.1062,949.304,824.7985,0
948.9011,982.3443,973.4799,944.8718,817.1429,0
969.0476,972.674,958.5714,978.315,855.8242,0
1012.564,967.8388,940.4396,1007.326,934.7985,0
1001.685,967.8388,942.0513,996.8498,933.9927,0
933.5897,968.6447,951.7216,931.978,825.6044,0
909.011,966.6301,949.304,906.5934,817.5458,0
930.3663,956.5568,935.2015,932.7839,860.2564,0
979.1208,946.8865,917.4725,970.6594,905.7875,0
981.1356,947.6923,915.8608,963.8095,917.4725,0
919.4872,952.5275,925.5311,904.5787,843.7363,0
892.0879,952.5275,927.5458,880.403,863.4799,0
911.8315,944.4689,917.0696,911.8315,884.8351,0
966.6301,936.4103,903.3699,954.9451,907.3993,0
981.1356,938.4249,903.3699,953.3333,941.6484,0
923.1135,940.8425,915.8608,904.9817,880.403,0
877.9854,934.7985,920.293,871.1356,832.0513,0
890.4762,926.7399,912.6374,894.1025,840.9158,0
944.8718,917.8755,896.9231,942.4542,864.6887,0
964.2125,913.0403,890.4762,944.8718,908.608,0
918.6813,919.0842,897.7289,897.7289,849.7802,0
875.9707,919.8901,904.1758,871.5385,816.337,0
886.4469,910.2198,900.5494,890.4762,872.7473,0
934.3956,902.1612,885.6411,934.7985,872.3443,0
963.8095,906.1905,882.0146,955.348,899.3406,0
929.9634,919.4872,899.7436,920.293,927.5458,0
882.4176,924.3223,911.8315,880.403,886.0439,0
884.8351,917.4725,901.7582,888.8644,850.989,0
926.7399,910.6227,886.0439,929.5604,859.0476,0
957.7656,910.6227,883.6264,949.707,939.6337,0
918.2784,914.652,896.9231,906.9963,936.4103,0
851.7949,913.4432,905.3846,851.7949,869.9268,0
851.392,909.4139,897.326,862.2711,850.5861,0
899.7436,909.011,886.0439,907.3993,867.9121,0
939.2308,907.3993,876.3736,937.2161,965.0183,0
908.2051,906.9963,877.5824,905.7875,950.9158,0
844.9451,906.5934,885.6411,850.5861,862.2711,0
843.3333,898.1319,880,855.8242,798.608,0
883.6264,889.6703,870.7326,900.9524,794.1758,0
934.7985,890.8792,861.0623,936.8132,884.4323,0
927.1429,898.9377,863.4799,921.5018,914.2491,0
853.8095,898.9377,880,860.6594,860.2564,0
832.4542,885.6411,870.7326,842.1245,847.7656,0
881.6117,877.1795,854.2125,886.0439,810.696,0
923.1135,874.3589,853.8095,918.6813,880.403,0
908.2051,877.9854,853.4066,894.9084,947.2894,0
849.3773,877.5824,858.6447,844.5421,912.2344,0
827.2161,867.5092,857.4359,830.4396,885.6411,0
861.0623,862.674,844.9451,865.8975,842.9304,0
923.9194,865.4945,836.4835,913.0403,902.967,0
925.1282,873.1502,840.5128,907.3993,915.0549,0
861.4652,871.5385,853.4066,850.989,819.1575,0
839.304,865.4945,850.1832,831.6484,798.608,0
862.674,861.4652,841.3187,864.6887,828.8278,0
910.2198,855.4213,829.2308,909.4139,913.8461,0
915.8608,855.8242,828.8278,908.2051,952.1245,0
867.5092,865.0916,842.1245,856.6301,882.8205,0
831.2454,863.4799,847.3626,837.2894,843.3333,0
840.1099,853.0037,840.1099,861.0623,881.6117,0
894.5055,847.7656,821.5751,894.9084,881.6117,0
913.8461,854.2125,821.978,902.5641,919.0842,0
865.4945,862.674,836.4835,852.6007,871.9414,0
821.978,859.8535,838.4982,813.1135,815.9341,0
838.9011,857.8388,835.2747,838.0952,818.7546,0
897.7289,855.4213,820.7692,887.2527,843.3333,0
920.293,859.4506,821.5751,902.5641,903.3699,0
873.9561,868.718,840.5128,860.2564,864.2857,0
828.022,869.1208,844.5421,821.978,848.5714,0
839.304,864.6887,834.4689,846.9597,848.5714,0
887.2527,861.4652,826.4103,890.4762,871.1356,0
919.8901,865.0916,832.8571,913.0403,922.7106,0
885.2381,875.1649,846.9597,878.7912,868.315,0
832.0513,878.7912,856.2271,829.6337,837.2894,0
837.6923,871.5385,850.989,845.348,855.4213,0
884.4323,865.4945,836.4835,892.8938,868.718,0
923.1135,867.1062,830.8425,915.8608,931.5751,0
898.9377,876.7766,842.5275,880.8058,897.326,0
833.2601,876.7766,850.989,823.9927,834.0659,0
826.8132,866.7033,845.348,831.6484,797.8022,0
867.9121,861.4652,839.707,872.3443,826.0073,0
909.011,861.8681,833.2601,902.967,909.8168,0
894.5055,865.8975,840.1099,880,915.0549,0
830.4396,867.9121,857.033,824.7985,830.0366,0
828.8278,868.718,855.8242,830.4396,841.7216,0
871.9414,868.315,841.7216,869.1208,863.0769,0
906.9963,865.4945,831.6484,900.5494,942.0513,0
897.326,872.3443,842.9304,884.4323,948.0952,0
848.1685,881.2088,861.4652,837.2894,862.674,0
836.4835,880.8058,861.8681,834.8718,839.707,0
869.9268,874.3589,848.5714,866.3004,823.9927,0
921.0989,871.1356,839.304,906.1905,910.2198,0
918.2784,878.3883,846.9597,894.1025,940.0366,0
859.0476,884.4323,863.8828,835.2747,800.6227,0
838.4982,881.6117,866.7033,818.3516,778.0586,0
865.8975,878.3883,850.1832,850.989,849.7802,0
921.9048,875.5677,834.4689,896.1172,888.8644,0
923.9194,875.9707,840.9158,898.1319,946.0806,0
853.0037,879.1942,859.4506,846.9597,854.6154,0
823.9927,876.7766,865.8975,821.5751,811.0989,0
848.5714,869.9268,861.4652,853.4066,804.2491,0
900.1465,866.7033,847.7656,900.5494,863.4799,0
910.2198,871.9414,844.9451,900.9524,916.2637,0
853.8095,878.7912,863.8828,850.5861,829.2308,0
820.7692,878.7912,869.5238,823.9927,817.5458,0
842.5275,875.9707,857.4359,849.3773,860.2564,0
902.1612,874.3589,845.7509,906.1905,885.6411,0
920.696,878.3883,850.989,920.696,920.696,0
872.7473,885.6411,862.674,870.3297,876.3736,0
834.4689,884.0293,866.3004,838.9011,841.7216,0
848.5714,879.597,864.6887,855.8242,830.8425,0
897.7289,873.1502,853.8095,897.326,814.3223,0
922.7106,871.5385,851.7949,916.2637,917.0696,0
880.403,877.5824,860.6594,871.1356,871.9414,0
834.0659,879.597,864.2857,826.8132,786.5201,0
841.7216,875.9707,861.0623,838.4982,820.7692,0
888.8644,869.5238,851.7949,878.7912,853.8095,0
923.1135,872.7473,853.4066,907.3993,892.0879,0
888.4615,883.2234,868.718,871.9414,865.0916,0
834.4689,887.2527,880,823.9927,842.1245,0
838.9011,880.8058,875.9707,834.4689,891.282,0
879.597,872.7473,859.4506,873.5531,858.6447,0
919.0842,874.3589,853.4066,905.7875,902.1612,0
897.7289,880.403,869.1208,890.4762,913.0403,0
847.3626,884.4323,883.2234,844.5421,858.6447,0
846.1539,882.0146,875.5677,848.5714,817.5458,0
881.2088,874.7619,864.2857,891.282,829.2308,0
930.7692,873.9561,855.0183,923.1135,953.3333,0
914.652,878.3883,853.8095,900.9524,931.1722,0
847.7656,884.0293,866.7033,846.5568,850.1832,0
842.1245,882.8205,870.3297,847.3626,863.4799,0
883.6264,877.1795,862.674,880.403,824.7985,0
927.9487,873.5531,853.0037,913.8461,862.2711,0
921.9048,878.3883,857.4359,903.3699,912.6374,0
870.7326,888.0586,871.9414,851.7949,813.9194,0
849.7802,883.2234,874.7619,839.707,781.685,0
871.9414,874.3589,869.1208,871.1356,762.7473,0
928.3516,871.9414,861.8681,920.696,842.1245,0
926.7399,876.7766,866.7033,914.652,935.6044,0
867.5092,887.2527,878.3883,853.8095,823.5897,0
847.7656,885.2381,880.403,838.0952,793.7729,0
875.1649,882.4176,874.3589,868.718,796.5934,0
926.7399,883.6264,860.6594,909.8168,857.033,0
934.3956,884.8351,858.2418,909.011,966.2271,0
884.4323,889.6703,868.718,864.2857,880,0
849.3773,889.6703,876.7766,848.1685,832.0513,0
867.1062,887.2527,875.1649,874.3589,830.8425,0
921.9048,883.6264,862.674,916.2637,891.685,0
940.8425,885.6411,865.8975,935.6044,914.2491,0
888.4615,891.685,880.403,886.8498,856.6301,0
848.5714,888.4615,880.403,847.7656,874.3589,0
865.4945,882.4176,871.1356,874.7619,839.304,0
921.0989,878.3883,857.4359,919.8901,838.9011,0
942.4542,882.0146,859.8535,931.978,916.6667,0
895.7143,888.0586,877.5824,890.8792,892.8938,0
855.0183,891.282,883.2234,851.392,839.707,0
866.3004,892.0879,878.7912,865.0916,831.2454,0
915.4579,887.2527,869.1208,906.1905,863.0769,0
946.8865,882.4176,861.4652,921.5018,940.8425,0
904.5787,888.8644,869.5238,885.2381,878.7912,0
848.9744,896.5201,880.8058,838.9011,761.1356,0
850.989,890.8792,877.1795,841.3187,794.5787,0
890.4762,882.4176,862.2711,884.8351,864.6887,0
924.3223,883.2234,855.4213,911.0256,929.5604,0
897.326,888.0586,865.4945,882.4176,912.6374,0
840.1099,885.6411,876.3736,831.2454,815.5311,0
841.7216,882.0146,869.9268,836.8865,837.6923,0
875.5677,879.1942,858.2418,875.9707,877.5824,0
911.4286,876.3736,851.7949,904.1758,911.4286,0
896.1172,882.8205,861.0623,880.403,922.7106,0
834.4689,884.8351,871.9414,823.5897,845.7509,0
830.0366,878.7912,868.315,831.6484,815.5311,0
865.8975,875.5677,861.8681,871.9414,825.6044,0
906.5934,873.1502,857.033,908.2051,906.9963,0
900.5494,875.9707,861.0623,889.6703,936.4103,0
836.4835,884.8351,874.3589,833.663,826.4103,0
820.7692,884.0293,872.7473,824.7985,781.685,0
860.6594,875.9707,863.8828,864.2857,788.1319,0
910.6227,870.3297,857.4359,910.6227,915.4579,0
906.1905,878.7912,857.4359,890.4762,956.1539,0
853.0037,889.6703,869.5238,834.4689,811.9048,0
835.6777,886.0439,870.3297,826.4103,811.5018,0
858.2418,880,861.4652,854.2125,809.0842,0
913.8461,879.597,850.989,903.3699,887.2527,0
917.8755,878.7912,850.1832,901.3553,930.3663,0
863.4799,882.4176,865.0916,845.348,844.1392,0
837.6923,884.4323,871.1356,826.8132,823.1868,0
856.2271,880,863.8828,855.4213,814.3223,0
913.0403,877.1795,850.1832,904.1758,891.685,0
922.7106,879.1942,850.1832,909.011,933.1868,0
870.3297,888.0586,867.9121,863.4799,864.6887,0
843.7363,890.0732,875.5677,840.5128,838.0952,0
858.6447,886.4469,873.1502,855.4213,859.4506,0
911.8315,892.8938,868.718,906.1905,894.9084,0
939.6337,904.1758,874.3589,933.1868,900.5494,0
900.1465,911.4286,892.8938,888.0586,869.1208,0
855.4213,909.8168,900.9524,851.392,867.1062,0
857.4359,901.3553,886.8498,866.7033,789.3406,0
909.4139,892.8938,866.7033,909.4139,787.326,0
936.4103,894.5055,866.3004,925.5311,929.5604,0
896.9231,904.1758,880,884.4323,865.8975,0
859.0476,910.2198,888.8644,844.1392,801.0256,0
870.3297,906.1905,886.4469,858.6447,815.5311,0
912.6374,899.3406,873.1502,896.1172,811.9048,0
944.8718,899.3406,865.0916,907.8022,917.4725,0
913.8461,903.7729,876.3736,875.1649,909.011,0
850.989,903.7729,885.6411,832.8571,841.3187,0
848.5714,896.9231,881.2088,836.0806,814.7253,0
892.8938,891.282,866.3004,874.3589,815.9341,0
927.9487,892.8938,854.2125,909.4139,909.011,0
903.7729,899.7436,861.4652,888.4615,896.9231,0
843.7363,902.5641,876.3736,838.4982,832.4542,0
837.2894,894.5055,873.1502,844.9451,836.4835,0
878.7912,886.8498,860.6594,887.6557,823.9927,0
918.2784,882.8205,853.4066,922.3077,927.5458,0
903.7729,887.2527,860.2564,895.7143,954.1392,0
842.5275,890.8792,871.5385,836.4835,855.8242,0
830.4396,881.6117,863.0769,838.0952,799.011,0
869.5238,876.7766,851.7949,873.9561,800.2198,0
913.4432,878.7912,846.1539,911.4286,896.1172,0
903.3699,882.8205,855.0183,900.5494,913.4432,0
842.9304,888.0586,870.3297,848.9744,815.5311,0
826.4103,886.8498,871.1356,840.5128,827.2161,0
866.7033,882.0146,862.2711,874.7619,846.5568,0
916.2637,880,848.5714,911.0256,925.9341,0
910.2198,882.4176,853.0037,896.1172,957.3626,0
855.8242,890.0732,871.5385,845.7509,865.0916,0
831.6484,888.0586,868.718,822.381,875.1649,0
859.0476,878.7912,856.6301,848.5714,871.9414,0
911.0256,873.5531,848.1685,896.5201,904.9817,0
920.696,877.1795,848.1685,894.5055,941.2454,0
869.9268,885.2381,861.0623,840.1099,870.3297,0
831.2454,881.2088,865.4945,813.1135,828.022,0
848.5714,871.1356,857.4359,839.707,807.4725,0
898.1319,868.315,844.1392,893.2967,844.1392,0
905.3846,870.7326,841.3187,899.3406,981.1356,0
855.4213,874.7619,855.0183,844.9451,895.3113,0
818.7546,875.1649,861.0623,820.3663,801.4286,0
833.663,871.9414,851.392,846.5568,871.1356,0
886.0439,865.8975,837.6923,894.1025,954.9451,0
910.2198,867.1062,839.707,906.9963,966.2271,0
872.3443,874.3589,855.8242,868.718,805.4579,0
827.2161,872.7473,860.2564,830.0366,829.2308,0
833.2601,868.718,854.6154,844.1392,850.5861,0
882.4176,867.1062,846.1539,894.1025,776.0439,0
913.0403,870.3297,843.3333,913.8461,903.3699,0
876.7766,881.6117,856.2271,875.1649,880.8058,0
831.2454,884.8351,865.4945,829.6337,785.3113,0
834.8718,875.1649,859.4506,836.8865,785.3113,0
877.1795,870.7326,846.9597,873.1502,838.0952,0
915.0549,876.7766,841.3187,897.326,938.4249,0
888.0586,882.0146,852.1978,870.7326,912.6374,0
832.8571,882.8205,867.5092,826.0073,798.608,0
837.2894,880.403,868.315,828.8278,756.7033,0
879.597,875.1649,857.8388,865.8975,815.5311,0
915.0549,873.1502,846.9597,904.5787,954.9451,0
894.5055,882.0146,855.8242,881.6117,951.7216,0
829.2308,885.2381,870.7326,823.1868,854.6154,0
824.7985,878.3883,866.3004,825.6044,910.2198,0
865.0916,873.1502,856.6301,864.2857,797.3993,0
909.4139,870.7326,849.3773,902.967,832.8571,0
900.1465,876.7766,858.2418,895.3113,971.4652,0
838.9011,882.4176,875.5677,844.5421,890.8792,0
823.9927,876.3736,871.1356,833.663,865.0916,0
854.6154,871.1356,858.2418,869.1208,826.4103,0
909.4139,873.5531,850.5861,912.2344,897.326,0
910.6227,879.597,853.8095,898.5348,947.6923,0
846.5568,880.403,864.6887,844.1392,829.6337,0
827.2161,878.7912,866.7033,836.4835,815.5311,0
857.8388,877.5824,859.4506,861.8681,816.337,0
913.4432,877.1795,850.989,901.3553,861.8681,0
917.8755,878.7912,855.8242,899.3406,937.2161,0
858.2418,883.2234,871.1356,844.9451,813.9194,0
828.022,882.8205,873.1502,823.5897,778.8644,0
850.1832,875.5677,859.8535,847.7656,838.0952,0
901.3553,868.718,847.3626,893.6996,883.6264,0
913.4432,872.3443,852.6007,899.3406,929.9634,0
862.674,878.3883,864.6887,847.3626,904.1758,0
829.6337,876.3736,868.718,815.5311,853.8095,0
847.7656,873.5531,865.0916,837.2894,808.6813,0
890.8792,869.1208,848.1685,883.2234,888.0586,0
901.3553,870.7326,841.3187,894.9084,956.1539,0
855.4213,875.9707,857.033,848.5714,903.3699,0
814.7253,874.3589,868.718,819.5604,833.663,0
821.1722,868.315,859.4506,840.1099,805.0549,0
876.3736,865.0916,843.7363,889.2674,851.7949,0
914.2491,869.9268,842.9304,914.652,927.5458,0
871.9414,875.9707,858.6447,871.9414,907.8022,0
824.3956,880,871.9414,830.4396,885.6411,0
837.6923,875.5677,866.3004,842.9304,864.2857,0
881.6117,867.1062,853.8095,883.6264,810.696,0
913.0403,868.718,850.5861,904.5787,929.1575,0
882.4176,875.9707,857.8388,872.7473,916.2637,0
823.9927,875.5677,863.0769,823.5897,774.4323,0
828.8278,868.315,858.6447,830.4396,827.2161,0
881.2088,865.8975,845.7509,877.1795,834.8718,0
913.8461,866.3004,836.8865,903.7729,878.3883,0
882.8205,871.1356,844.1392,872.3443,911.0256,0
825.2015,873.9561,856.6301,817.9487,819.1575,0
816.337,871.5385,851.392,819.5604,879.1942,0
854.6154,864.6887,839.707,860.6594,904.5787,0
904.9817,862.674,834.0659,893.6996,911.0256,0
892.0879,870.7326,843.7363,878.3883,899.7436,0
826.8132,875.5677,857.033,827.619,833.2601,0
815.9341,871.5385,851.7949,821.978,794.9817,0
849.3773,865.4945,841.7216,858.2418,799.8168,0
892.8938,865.8975,835.6777,897.7289,919.4872,0
890.0732,871.5385,842.9304,885.2381,912.2344,0
829.6337,875.9707,858.6447,827.619,834.0659,0
814.3223,875.1649,856.6301,821.978,892.0879,0
850.1832,873.1502,846.5568,859.0476,875.9707,0
905.3846,872.7473,840.5128,898.1319,916.2637,0
906.5934,876.7766,842.1245,891.282,938.022,0
841.7216,882.4176,854.2125,836.4835,817.1429,0
817.9487,881.6117,854.6154,819.1575,806.2637,0
847.3626,875.5677,846.1539,845.348,793.7729,0
900.5494,871.5385,841.3187,888.4615,867.5092,0
911.8315,878.7912,845.7509,893.6996,952.9304,0
861.4652,888.0586,861.4652,846.9597,894.1025,0
826.4103,884.0293,864.2857,823.9927,826.4103,0
844.5421,876.3736,855.8242,849.3773,810.696,0
904.9817,873.5531,844.1392,902.1612,859.8535,0
922.3077,877.5824,847.3626,919.0842,904.5787,0
873.1502,883.2234,862.2711,863.8828,871.9414,0
836.4835,882.0146,872.3443,829.6337,849.3773,0
851.392,878.3883,867.9121,857.033,818.7546,0
897.7289,872.7473,850.989,899.3406,851.7949,0
917.0696,871.5385,851.7949,910.6227,954.9451,0
868.315,877.5824,863.0769,866.3004,865.8975,0
819.5604,877.5824,864.6887,823.5897,800.2198,0
835.6777,871.5385,859.4506,839.304,827.2161,0
886.0439,866.7033,846.9597,888.8644,822.381,0
914.2491,869.5238,845.7509,909.011,888.4615,0
880,877.9854,860.6594,873.1502,878.3883,0
829.2308,878.7912,869.9268,826.4103,844.5421,0
834.4689,869.9268,865.4945,835.6777,867.1062,0
881.6117,864.2857,849.3773,880.403,861.0623,0
920.696,866.3004,840.5128,905.7875,902.967,0
891.685,875.9707,852.1978,871.5385,901.3553,0
831.2454,879.597,867.9121,817.5458,844.5421,0
831.2454,870.7326,861.0623,831.2454,804.2491,0
867.1062,866.3004,847.7656,872.3443,786.1172,0
906.5934,868.315,846.1539,897.326,886.8498,0
888.0586,873.1502,853.0037,874.3589,929.9634,0
827.2161,877.9854,860.6594,823.9927,849.7802,0
830.4396,876.7766,860.2564,834.8718,796.5934,0
871.1356,870.3297,853.0037,872.7473,819.9634,0
908.608,867.1062,847.3626,900.1465,912.6374,0
895.3113,875.1649,855.8242,880.403,896.5201,0
832.8571,883.2234,874.3589,837.6923,856.2271,0
817.9487,878.7912,873.5531,831.2454,868.718,0
848.1685,869.1208,858.2418,852.1978,800.6227,0
895.3113,866.7033,850.1832,896.9231,861.8681,0
895.7143,872.7473,853.0037,890.0732,932.381,0
838.9011,880.403,865.4945,837.2894,829.6337,0
823.5897,877.5824,862.674,824.3956,794.1758,0
853.4066,871.1356,850.5861,856.2271,817.1429,0
906.9963,867.5092,836.4835,899.3406,886.8498,0
909.8168,871.1356,835.6777,897.7289,948.9011,0
852.1978,880.403,852.6007,844.9451,893.2967,0
826.0073,879.1942,857.8388,815.5311,796.5934,0
844.5421,869.9268,853.0037,837.2894,805.4579,0
895.7143,865.4945,842.5275,884.0293,913.0403,0
908.608,870.3297,840.5128,889.6703,961.392,0
856.6301,877.5824,851.7949,842.5275,896.9231,0
818.3516,874.7619,853.8095,817.1429,856.2271,0
830.8425,869.1208,849.3773,839.304,847.3626,0
882.8205,869.1208,839.304,882.4176,845.7509,0
900.5494,872.3443,836.4835,893.2967,956.9597,0
852.6007,877.5824,854.2125,853.4066,870.7326,0
810.293,877.1795,861.8681,814.7253,847.3626,0
821.1722,873.1502,850.5861,834.0659,867.9121,0
875.9707,869.5238,839.304,882.0146,841.3187,0
907.3993,867.5092,836.8865,898.9377,946.4835,0
863.0769,871.9414,844.5421,859.0476,890.0732,0
812.7106,875.1649,855.8242,821.1722,844.1392,0
817.9487,870.3297,853.4066,835.6777,857.033,0
866.7033,865.0916,841.3187,880.403,862.674,0
903.7729,867.9121,836.4835,902.967,936.0073,0
871.5385,872.7473,845.348,865.0916,888.4615,0
818.3516,872.3443,855.4213,821.1722,809.4872,0
821.978,869.1208,848.5714,828.8278,791.3553,0
865.8975,865.0916,834.4689,861.4652,826.4103,0
904.9817,863.0769,828.8278,891.282,912.6374,0
882.8205,870.7326,838.4982,867.5092,895.7143,0
820.3663,875.9707,850.5861,809.0842,826.8132,0
815.9341,870.3297,847.7656,807.4725,788.9377,0
863.0769,867.5092,841.3187,856.6301,773.2234,0
904.1758,867.1062,831.6484,889.6703,897.7289,0
882.4176,869.9268,837.6923,870.3297,941.2454,0
827.2161,874.3589,858.6447,821.978,823.5897,0
820.3663,869.5238,858.6447,815.1282,796.1905,0
853.0037,866.3004,848.5714,851.392,821.978,0
900.9524,865.0916,837.6923,888.4615,877.1795,0
892.8938,867.9121,843.7363,878.7912,939.2308,0
832.8571,875.1649,861.4652,830.0366,870.3297,0
817.5458,874.7619,860.2564,817.9487,807.4725,0
850.1832,869.5238,852.6007,850.5861,781.685,0
899.7436,866.7033,843.3333,895.7143,851.7949,0
901.3553,874.3589,846.5568,894.5055,931.5751,0
845.7509,881.2088,860.6594,842.1245,867.1062,0
821.1722,877.1795,862.674,824.3956,808.2784,0
851.392,872.7473,853.0037,857.033,788.5348,0
903.3699,868.315,838.0952,900.9524,906.9963,0
907.3993,872.3443,842.9304,902.1612,933.5897,0
854.2125,882.8205,864.2857,850.989,841.3187,0
823.5897,882.8205,868.315,824.7985,831.2454,0
846.9597,878.7912,857.4359,845.7509,831.2454,0
898.1319,870.3297,840.5128,881.2088,910.6227,0
914.652,868.315,839.707,888.4615,919.4872,0
864.6887,875.1649,854.6154,842.1245,836.8865,0
824.7985,877.1795,857.033,805.8608,829.2308,0
840.1099,871.5385,848.9744,831.2454,810.293,0
889.6703,865.4945,837.2894,878.3883,869.9268,0
911.4286,868.315,835.6777,894.1025,924.7253,0
865.0916,874.3589,845.7509,856.6301,865.0916,0
821.978,874.7619,856.2271,818.7546,826.4103,0
835.2747,873.5531,854.6154,839.304,856.6301,0
882.0146,874.3589,843.3333,890.4762,871.1356,0
908.608,874.3589,841.3187,907.3993,895.7143,0
869.9268,877.1795,850.989,860.2564,893.6996,0
820.7692,881.6117,861.0623,817.5458,872.7473,0
828.022,878.7912,857.4359,826.0073,865.0916,0
876.3736,874.7619,844.5421,865.0916,906.5934,0
913.8461,875.9707,842.5275,898.5348,921.9048,0
882.4176,880,853.8095,868.718,893.2967,0
829.6337,882.0146,865.8975,825.6044,865.0916,0
830.8425,877.1795,860.6594,838.0952,828.4249,0
873.9561,874.7619,850.1832,881.2088,834.4689,0
919.4872,876.3736,848.5714,914.652,900.1465,0
902.1612,884.4323,858.6447,896.9231,836.0806,0
846.5568,889.2674,871.5385,843.3333,811.0989,0
837.2894,882.4176,866.7033,842.5275,859.8535,0
872.7473,880,856.2271,881.2088,854.2125,0
919.4872,880.403,850.5861,909.011,913.4432,0
914.652,885.2381,856.6301,897.326,879.1942,0
860.2564,893.2967,870.3297,848.5714,803.8461,0
845.348,890.0732,869.5238,842.9304,786.1172,0
874.3589,882.4176,859.0476,875.5677,837.2894,0
917.4725,882.0146,847.3626,906.5934,927.9487,0
915.0549,888.4615,850.5861,898.1319,909.4139,0
854.6154,892.4908,867.9121,848.5714,857.4359,0
826.8132,887.2527,865.8975,828.4249,864.6887,0
848.1685,878.7912,852.6007,855.8242,855.0183,0
893.6996,874.7619,840.5128,899.3406,902.1612,0
894.5055,878.3883,840.5128,890.0732,905.3846,0
836.8865,882.0146,851.392,831.6484,817.9487,0
810.696,876.3736,855.4213,816.337,838.9011,0
836.4835,872.3443,855.0183,853.0037,840.9158,0
888.4615,872.3443,846.1539,900.1465,860.6594,0
905.7875,875.5677,849.3773,904.5787,918.6813,0
858.6447,882.0146,864.6887,864.6887,832.0513,0
819.9634,879.597,865.4945,831.6484,850.1832,0
836.8865,873.9561,853.8095,848.1685,867.1062,0
891.685,870.7326,842.5275,897.326,872.3443,0
914.2491,873.5531,844.1392,902.967,926.7399,0
868.315,878.7912,859.4506,857.8388,896.1172,0
832.4542,881.2088,867.5092,824.7985,825.6044,0
848.9744,878.3883,859.0476,844.1392,844.1392,0
894.1025,869.9268,843.3333,884.8351,881.6117,0
917.0696,873.5531,844.9451,900.5494,913.4432,0
875.9707,883.2234,860.2564,867.9121,855.0183,0
825.6044,881.6117,866.7033,822.381,821.1722,0
826.8132,876.3736,861.4652,832.0513,859.8535,0
872.3443,871.1356,852.1978,883.6264,857.033,0
905.7875,874.3589,845.7509,905.7875,896.9231,0
872.3443,880,853.4066,867.5092,871.1356,0
816.337,879.597,866.7033,823.9927,838.0952,0
819.9634,877.9854,864.6887,833.2601,863.0769,0
866.7033,871.9414,850.1832,877.1795,838.4982,0
904.9817,869.9268,836.0806,909.4139,873.5531,0
876.3736,874.3589,850.1832,877.5824,871.9414,0
820.7692,875.1649,868.718,829.2308,816.7399,0
823.1868,873.9561,862.674,836.0806,803.8461,0
860.2564,871.9414,853.0037,876.3736,768.3883,0
905.3846,871.1356,847.3626,910.2198,840.9158,0
896.5201,879.1942,856.6301,888.0586,896.5201,0
833.663,884.4323,869.1208,832.8571,845.7509,0
825.6044,882.0146,864.6887,832.4542,788.1319,0
862.2711,877.9854,853.0037,867.1062,831.2454,0
904.1758,875.9707,844.5421,895.3113,935.6044,0
899.3406,878.3883,847.3626,881.2088,927.1429,0
844.9451,881.2088,858.2418,830.4396,816.7399,0
826.4103,877.9854,863.0769,821.5751,813.9194,0
852.6007,872.3443,855.8242,859.8535,825.2015,0
902.5641,868.718,842.1245,900.9524,875.9707,0
905.3846,871.5385,847.7656,893.6996,925.9341,0
846.5568,877.1795,868.718,847.3626,871.5385,0
821.1722,874.7619,867.9121,830.8425,846.9597,0
842.5275,867.9121,854.6154,855.8242,834.4689,0
894.1025,865.4945,845.348,900.5494,872.3443,0
902.5641,870.7326,844.9451,898.5348,904.5787,0
843.3333,877.5824,856.2271,843.7363,890.0732,0
807.4725,875.1649,862.2711,815.5311,872.3443,0
828.4249,869.9268,856.2271,840.9158,859.4506,0
883.6264,865.4945,841.7216,885.6411,896.5201,0
896.5201,866.7033,839.707,889.6703,920.293,0
845.7509,875.9707,858.6447,845.348,878.7912,0
811.0989,876.7766,862.674,817.5458,839.707,0
825.6044,871.9414,848.5714,831.6484,806.6667,0
879.1942,869.9268,834.4689,865.0916,829.6337,0
904.9817,872.7473,836.0806,887.6557,891.282,0
863.4799,880,853.0037,850.5861,841.7216,0
824.3956,881.2088,861.0623,804.652,856.2271,0
832.4542,873.1502,848.1685,819.1575,872.7473,0
873.5531,861.4652,832.4542,866.3004,859.4506,0
902.967,863.0769,836.8865,895.3113,915.0549,0
873.9561,874.3589,851.392,860.6594,880,0
816.7399,875.9707,853.8095,814.3223,828.4249,0
817.5458,868.315,844.1392,832.8571,794.5787,0
866.7033,862.2711,833.2601,876.3736,805.4579,0
901.3553,861.8681,831.2454,897.7289,906.5934,0
870.7326,867.9121,842.9304,868.718,920.696,0
816.7399,869.9268,856.6301,820.7692,814.3223,0
819.9634,863.4799,857.4359,830.4396,840.1099,0
864.6887,863.8828,850.5861,869.5238,905.7875,0
901.7582,864.6887,837.2894,892.0879,929.1575,0
878.3883,869.1208,843.3333,868.718,900.9524,0
821.5751,875.5677,857.4359,817.5458,818.3516,0
811.5018,868.315,845.7509,812.3077,841.3187,0
846.9597,860.2564,832.0513,853.4066,851.392,0
890.0732,860.6594,823.9927,888.0586,917.4725,0
874.3589,867.9121,828.4249,863.0769,904.5787,0
817.1429,872.7473,844.9451,806.6667,809.4872,0
809.4872,870.3297,844.5421,801.8315,787.326,0
841.3187,869.5238,836.8865,839.707,830.8425,0
886.0439,869.5238,829.6337,885.2381,930.7692,0
875.1649,872.7473,830.8425,867.1062,982.7473,0
814.3223,875.1649,844.5421,805.4579,886.0439,0
796.1905,869.5238,846.1539,796.5934,844.9451,0
821.978,863.0769,834.4689,825.2015,847.3626,0
869.9268,855.0183,822.381,869.1208,893.2967,0
878.7912,854.6154,827.619,872.7473,923.5165,0
827.2161,863.8828,842.1245,824.7985,863.8828,0
794.9817,863.0769,840.9158,811.9048,886.4469,0
823.9927,855.0183,832.0513,844.1392,875.1649,0
884.0293,852.6007,823.1868,890.8792,887.6557,0
892.8938,860.2564,826.4103,899.3406,888.4615,0
839.707,867.9121,835.6777,847.3626,863.4799,0
807.4725,866.7033,844.5421,820.3663,856.6301,0
830.4396,865.4945,847.3626,850.1832,803.4432,0
887.6557,866.3004,838.9011,896.9231,854.6154,0
908.608,869.9268,839.304,906.9963,949.707,0
860.6594,875.5677,850.1832,856.2271,913.0403,0
818.7546,879.1942,857.4359,822.381,799.4139,0
826.4103,873.1502,849.7802,836.4835,772.4176,0
868.718,866.7033,836.0806,874.7619,850.989,0
897.326,873.5531,836.4835,896.1172,892.4908,0
858.2418,882.0146,847.7656,851.7949,850.1832,0
813.5165,882.8205,854.6154,809.4872,813.5165,0
827.619,877.5824,852.1978,831.6484,836.8865,0
869.9268,870.7326,840.5128,869.1208,857.8388,0
894.9084,869.1208,838.4982,886.4469,888.4615,0
870.3297,877.9854,854.2125,857.4359,863.4799,0
816.7399,878.7912,865.0916,811.0989,838.9011,0
815.9341,870.7326,856.2271,819.9634,853.0037,0
868.718,868.718,845.348,866.7033,824.7985,0
910.6227,871.5385,840.9158,899.3406,898.1319,0
885.2381,877.5824,846.9597,873.1502,906.9963,0
828.4249,882.4176,860.2564,830.4396,796.5934,0
826.8132,879.597,857.8388,835.6777,774.4323,0
866.3004,877.1795,848.1685,876.7766,808.6813,0
912.2344,877.1795,845.348,915.0549,902.5641,0
895.7143,879.597,853.8095,893.6996,922.7106,0
834.0659,883.2234,870.7326,838.0952,872.7473,0
821.5751,880,869.1208,834.0659,910.6227,0
853.8095,871.5385,853.0037,870.7326,890.4762,0
900.1465,869.9268,842.9304,900.5494,902.1612,0
897.7289,877.9854,850.1832,892.0879,912.6374,0
837.6923,885.6411,865.4945,843.7363,817.5458,0
815.9341,882.4176,863.4799,829.2308,776.8498,0
849.7802,875.1649,851.7949,860.6594,796.5934,0
899.3406,871.9414,844.5421,898.5348,896.1172,0
902.967,880.403,853.4066,896.1172,923.1135,0
853.8095,889.2674,868.315,846.5568,840.9158,0
830.8425,886.8498,868.315,827.619,865.0916,0
851.7949,880.403,859.4506,853.8095,875.1649,0
902.1612,877.1795,848.1685,894.5055,865.0916,0
910.6227,878.7912,845.348,894.9084,916.6667,0
849.7802,884.0293,856.6301,838.4982,834.0659,0
813.5165,882.4176,861.0623,815.5311,816.337,0
831.6484,875.1649,851.392,841.7216,826.0073,0
877.9854,869.5238,839.304,880.403,844.9451,0
898.5348,871.1356,847.3626,890.0732,905.7875,0
853.4066,876.3736,860.6594,850.1832,871.1356,0
811.5018,873.1502,855.8242,821.1722,840.9158,0
830.4396,866.7033,846.5568,838.0952,809.0842,0
885.2381,864.6887,836.0806,886.8498,863.4799,0
909.4139,869.1208,837.6923,904.1758,930.3663,0
859.8535,872.3443,849.7802,859.8535,919.8901,0
812.3077,870.3297,857.4359,821.978,874.3589,0
823.5897,868.718,853.0037,830.8425,820.7692,0
871.1356,864.6887,838.4982,875.5677,835.2747,0
894.9084,860.2564,830.4396,892.0879,899.3406,0
857.4359,865.0916,841.7216,853.0037,879.597,0
803.8461,865.4945,846.9597,805.4579,846.5568,0
800.2198,857.033,834.0659,812.7106,833.2601,0
847.3626,854.2125,822.381,853.4066,796.1905,0
882.4176,851.7949,821.1722,880,891.685,0
852.6007,856.6301,830.8425,844.5421,909.011,0
798.2051,863.4799,836.8865,788.9377,825.6044,0
794.1758,857.4359,835.6777,796.5934,848.5714,0
834.4689,853.4066,831.6484,840.9158,859.8535,0
880.403,860.2564,828.8278,880.8058,912.6374,0
863.4799,869.5238,838.0952,858.6447,921.0989,0
799.4139,872.3443,852.6007,805.8608,842.9304,0
794.1758,867.5092,851.392,809.0842,816.7399,0
835.2747,859.8535,842.1245,844.9451,838.9011,0
877.5824,857.8388,831.6484,875.5677,911.0256,0
867.9121,865.4945,838.0952,870.7326,878.3883,0
811.9048,871.1356,855.0183,825.2015,848.5714,0
801.0256,867.9121,858.2418,812.3077,867.9121,0
844.9451,863.8828,849.3773,847.7656,849.7802,0
897.7289,863.8828,838.4982,900.5494,921.5018,0
894.1025,867.5092,836.8865,894.1025,906.1905,0
838.9011,872.3443,850.1832,841.7216,821.1722,0
816.7399,868.718,853.8095,825.6044,851.392,0
848.9744,865.4945,848.9744,852.1978,837.6923,0
902.1612,864.2857,841.3187,898.5348,846.1539,0
902.967,867.9121,843.7363,891.282,898.1319,0
842.1245,875.9707,859.4506,836.8865,795.7875,0
809.4872,874.3589,864.2857,814.3223,815.5311,0
833.663,872.3443,854.2125,836.4835,842.5275,0
886.0439,871.1356,839.707,880.8058,892.0879,0
897.7289,872.7473,845.348,891.685,944.8718,0
848.5714,876.7766,862.674,841.3187,846.1539,0
812.7106,877.5824,865.8975,807.0696,816.337,0
824.3956,872.3443,852.1978,835.6777,821.1722,0
880.403,866.7033,836.8865,880.8058,836.8865,0
906.1905,873.5531,840.5128,896.5201,877.9854,0
860.6594,883.6264,857.4359,856.6301,836.0806,0
818.7546,884.0293,866.7033,822.381,804.2491,0
829.6337,878.3883,861.0623,839.304,784.1025,0
885.6411,875.5677,846.9597,885.2381,832.4542,0
915.0549,877.5824,840.5128,909.8168,940.0366,0
871.5385,882.8205,853.0037,870.3297,888.4615,0
819.9634,884.0293,867.9121,823.5897,802.6374,0
827.619,878.7912,863.8828,838.4982,803.0403,0
874.3589,872.3443,846.1539,878.7912,813.5165,0
901.7582,869.9268,835.2747,896.1172,898.5348,0
864.6887,878.7912,844.9451,860.6594,885.6411,0
812.3077,885.2381,855.8242,808.6813,815.1282,0
815.9341,879.1942,852.6007,823.9927,828.022,0
859.0476,872.7473,840.5128,868.315,843.3333,0
900.1465,875.1649,836.8865,898.5348,938.022,0
880.8058,883.6264,852.1978,872.3443,949.304,0
826.0073,886.8498,866.3004,819.5604,880.8058,0
818.7546,880.8058,857.8388,822.7839,862.2711,0
850.989,871.5385,846.1539,860.6594,870.3297,0
899.3406,873.1502,848.1685,896.5201,910.2198,0
886.8498,878.7912,857.4359,880.8058,925.5311,0
819.9634,880,864.2857,829.2308,832.0513,0
813.9194,875.1649,862.674,825.2015,812.3077,0
849.3773,868.315,852.6007,861.4652,847.3626,0
890.0732,867.1062,841.7216,896.5201,913.8461,0
882.8205,876.3736,846.5568,882.0146,883.2234,0
817.9487,883.2234,862.2711,834.0659,815.5311,0
792.967,877.9854,863.0769,820.7692,822.7839,0
819.1575,869.5238,855.0183,848.9744,791.3553,0
867.9121,863.0769,848.5714,892.8938,875.5677,0
873.5531,867.5092,851.7949,887.6557,942.4542,0
816.337,875.1649,863.8828,834.8718,897.7289,0
793.7729,873.9561,866.3004,826.0073,865.0916,0
825.6044,870.7326,861.0623,861.4652,827.619,0
879.1942,867.9121,850.5861,904.9817,880,0
889.6703,871.5385,850.1832,901.7582,932.381,0
843.7363,879.1942,861.4652,853.8095,831.2454,0
817.1429,876.3736,859.8535,827.2161,809.4872,0
837.6923,871.9414,855.8242,844.1392,833.2601,0
888.8644,869.1208,843.7363,887.6557,853.8095,0
899.7436,869.9268,839.707,894.9084,948.4982,0
850.989,876.3736,858.2418,847.7656,909.4139,0
817.1429,877.9854,869.9268,818.3516,868.718,0
832.0513,873.5531,861.0623,837.2894,874.7619,0
874.3589,867.5092,846.5568,885.2381,870.3297,0
896.5201,871.9414,844.5421,897.326,908.608,0
862.2711,882.4176,856.2271,853.8095,870.7326,0
811.9048,880.403,865.0916,819.5604,815.5311,0
817.1429,876.3736,857.8388,834.0659,848.1685,0
872.7473,874.3589,844.5421,881.2088,858.6447,0
900.5494,872.7473,842.5275,900.5494,903.7729,0
860.2564,879.597,859.0476,860.6594,900.1465,0
813.5165,882.0146,870.3297,821.978,817.1429,0
826.0073,876.7766,866.3004,837.6923,812.3077,0
871.1356,870.7326,856.2271,873.9561,873.5531,0
898.9377,868.315,850.1832,901.3553,942.8571,0
873.9561,877.5824,865.8975,876.3736,873.5531,0
823.9927,883.2234,875.5677,824.3956,761.1356,0
827.2161,875.9707,865.8975,832.8571,791.7582,0
867.1062,870.7326,857.8388,871.1356,814.3223,0
903.7729,873.9561,847.3626,897.326,914.652,0
889.2674,880.8058,850.1832,880.403,922.7106,0
831.6484,885.2381,866.7033,831.6484,778.8644,0
819.9634,881.6117,866.7033,828.4249,804.652,0
848.5714,875.1649,852.6007,866.7033,853.0037,0
894.9084,874.7619,840.1099,902.1612,915.4579,0
886.8498,874.3589,844.9451,880.8058,947.2894,0
824.7985,875.5677,859.8535,831.2454,815.1282,0
813.9194,875.5677,858.6447,833.663,779.2674,0
847.7656,869.5238,850.989,865.0916,843.3333,0
894.5055,865.4945,843.7363,904.9817,906.5934,0
892.4908,870.3297,851.7949,898.9377,918.2784,0
839.304,875.9707,864.2857,840.5128,885.2381,0
816.337,873.5531,860.6594,823.9927,867.9121,0
840.9158,870.7326,851.392,859.4506,833.2601,0
897.7289,871.5385,839.304,904.1758,910.2198,0
903.3699,877.1795,845.348,890.8792,910.2198,0
839.707,882.4176,864.2857,833.2601,857.4359,0
806.2637,880,867.1062,806.6667,815.9341,0
829.6337,874.7619,858.2418,828.022,801.0256,0
886.4469,874.3589,845.7509,880.403,869.9268,0
899.3406,877.5824,844.9451,888.0586,947.2894,0
846.5568,880.403,858.2418,838.9011,891.685,0
819.1575,879.597,866.3004,814.7253,803.4432,0
834.8718,872.7473,861.0623,840.5128,807.8755,0
885.6411,866.3004,847.7656,891.685,847.7656,0
908.608,868.718,849.3773,907.8022,915.8608,0
863.4799,877.1795,865.8975,864.6887,837.2894,0
819.5604,877.9854,873.9561,830.0366,844.1392,0
827.619,873.9561,863.8828,846.5568,887.2527,0
880.403,869.5238,850.989,895.7143,843.3333,0
909.011,872.3443,852.6007,912.6374,892.8938,0
869.1208,880.403,859.8535,861.0623,867.5092,0
813.1135,875.9707,859.0476,813.1135,817.9487,0
812.7106,872.3443,859.8535,823.5897,835.2747,0
857.8388,873.5531,855.4213,868.315,838.0952,0
894.9084,872.3443,846.1539,894.1025,946.0806,0
867.9121,876.3736,855.0183,863.4799,879.597,0
815.5311,877.5824,866.3004,817.1429,801.8315,0
818.7546,873.5531,859.8535,828.8278,863.8828,0
866.3004,870.7326,851.392,872.7473,854.6154,0
899.3406,869.9268,843.7363,902.1612,935.2015,0
872.3443,875.1649,848.1685,873.9561,908.608,0
816.7399,881.2088,863.8828,822.7839,842.1245,0
812.3077,876.7766,856.6301,819.1575,841.3187,0
845.7509,868.315,842.9304,849.3773,819.5604,0
882.4176,867.9121,840.5128,882.4176,882.8205,0
867.5092,871.1356,847.3626,863.0769,890.0732,0
811.9048,873.1502,857.4359,812.3077,857.4359,0
800.2198,870.3297,855.8242,809.8901,838.9011,0
835.6777,866.3004,848.1685,846.1539,797.8022,0
887.6557,862.674,837.2894,888.0586,901.3553,0
884.4323,866.7033,842.9304,878.7912,954.5421,0
823.9927,872.7473,863.8828,830.8425,863.8828,0
803.4432,869.9268,863.0769,820.7692,844.9451,0
841.3187,865.0916,852.1978,850.5861,860.6594,0
890.4762,861.4652,845.7509,898.9377,912.2344,0
892.4908,866.3004,850.5861,900.1465,933.9927,0
842.5275,876.3736,865.0916,850.989,853.0037,0
817.9487,875.1649,867.9121,831.6484,815.5311,0
842.5275,867.5092,857.8388,857.033,848.5714,0
896.1172,864.6887,843.7363,904.9817,875.9707,0
903.7729,872.3443,847.3626,904.1758,907.8022,0
846.9597,881.6117,858.6447,843.7363,879.597,0
815.5311,883.2234,861.0623,813.9194,859.4506,0
834.8718,877.5824,857.4359,835.2747,885.6411,0
887.6557,870.7326,843.3333,877.1795,908.608,0
903.3699,876.7766,841.7216,887.2527,886.4469,0
849.7802,881.2088,851.7949,838.0952,814.7253,0
813.1135,879.597,858.6447,811.5018,819.5604,0
828.4249,878.3883,858.2418,836.0806,819.9634,0
879.597,876.7766,847.7656,879.597,851.392,0
903.3699,877.1795,846.5568,898.1319,926.7399,0
860.2564,881.2088,861.0623,856.6301,881.2088,0
816.337,882.0146,866.7033,819.1575,849.3773,0
826.8132,878.3883,859.8535,835.6777,855.8242,0
875.5677,875.9707,845.348,880,867.5092,0
904.9817,877.1795,840.1099,899.7436,935.6044,0
870.3297,884.0293,857.8388,861.8681,953.3333,0
817.9487,883.2234,867.1062,817.9487,888.8644,0
820.3663,875.1649,858.6447,831.6484,830.8425,0
866.3004,873.5531,850.5861,877.1795,815.1282,0
902.1612,876.3736,847.7656,904.1758,904.1758,0
875.5677,881.2088,858.2418,876.7766,927.1429,0
821.1722,883.6264,870.3297,825.6044,822.381,0
819.9634,883.2234,864.2857,829.2308,841.7216,0
859.0476,877.5824,849.7802,867.9121,855.8242,0
897.7289,872.7473,845.7509,895.3113,878.3883,0
882.4176,876.7766,857.033,875.9707,886.4469,0
827.2161,882.4176,868.315,822.7839,813.9194,0
817.9487,881.2088,863.8828,823.1868,807.4725,0
853.8095,874.7619,855.0183,864.6887,796.5934,0
900.1465,869.1208,848.9744,902.1612,844.1392,0
891.685,875.1649,855.4213,890.8792,896.9231,0
834.8718,881.2088,869.9268,844.5421,826.8132,0
816.7399,873.1502,870.7326,834.4689,806.6667,0
846.9597,863.4799,864.6887,864.6887,809.8901,0
896.5201,861.4652,855.4213,907.3993,877.5824,0
896.1172,867.5092,858.6447,895.7143,925.5311,0
843.3333,878.3883,870.3297,846.1539,811.9048,0
826.4103,878.3883,870.7326,833.663,799.011,0
853.0037,869.5238,861.8681,855.8242,867.1062,0
898.9377,864.6887,849.7802,898.5348,910.2198,0
901.3553,869.1208,851.7949,898.5348,925.9341,0
848.5714,876.3736,866.3004,845.7509,875.5677,0
814.3223,872.7473,866.3004,822.7839,855.8242,0
834.4689,866.3004,853.4066,843.7363,823.9927,0
893.2967,863.0769,841.3187,885.6411,861.8681,0
904.9817,866.7033,844.5421,891.282,946.4835,0
846.1539,874.7619,860.6594,843.3333,913.4432,0
812.3077,877.1795,861.4652,816.7399,913.0403,0
835.2747,872.3443,847.3626,836.0806,863.4799,0
886.0439,867.1062,837.2894,875.5677,891.685,0
900.5494,871.5385,841.7216,882.4176,973.4799,0
853.8095,877.1795,853.8095,838.0952,878.7912,0
808.2784,875.5677,858.6447,809.0842,862.2711,0
815.5311,872.7473,854.6154,828.4249,867.9121,0
866.3004,867.5092,840.1099,869.5238,828.8278,0
892.4908,866.7033,832.8571,885.2381,879.1942,0
857.8388,876.3736,847.7656,847.3626,883.6264,0
815.5311,881.2088,860.2564,805.8608,837.2894,0
816.337,874.3589,852.1978,819.5604,813.1135,0
864.6887,867.1062,836.4835,863.8828,827.2161,0
902.1612,868.718,834.0659,886.8498,885.2381,0
869.1208,876.7766,849.7802,859.0476,885.2381,0
817.5458,876.3736,861.0623,811.9048,864.6887,0
823.5897,869.9268,860.2564,820.7692,867.9121,0
864.6887,867.5092,850.1832,865.4945,855.4213,0
901.7582,870.3297,842.5275,895.3113,917.4725,0
879.597,873.9561,850.1832,868.315,936.4103,0
817.5458,874.3589,859.4506,815.1282,838.0952,0
817.5458,870.7326,860.6594,819.1575,807.0696,0
856.6301,870.3297,854.2125,859.4506,871.1356,0
897.326,873.1502,844.9451,893.6996,897.326,0
884.8351,875.9707,853.4066,876.3736,926.7399,0
823.9927,878.7912,868.718,821.1722,898.5348,0
816.7399,875.5677,867.1062,817.9487,875.5677,0
851.7949,871.9414,857.8388,858.2418,863.0769,0
896.1172,868.718,850.1832,898.9377,879.597,0
892.0879,873.5531,855.0183,885.6411,917.4725,0
835.2747,880.403,859.4506,830.0366,871.1356,0
818.7546,873.9561,856.2271,821.1722,825.2015,0
850.989,867.5092,851.7949,857.033,797.3993,0
898.5348,869.1208,841.7216,899.7436,842.5275,0
896.9231,875.1649,847.3626,895.3113,931.1722,0
842.1245,880.8058,865.0916,844.5421,882.4176,0
817.9487,877.5824,867.1062,825.6044,832.4542,0
845.7509,871.5385,861.4652,853.0037,859.8535,0
899.7436,869.5238,849.3773,893.2967,897.326,0
905.7875,875.1649,846.5568,893.6996,945.6777,0
850.1832,880,858.2418,840.9158,885.2381,0
821.1722,878.7912,863.0769,816.337,866.3004,0
837.6923,873.1502,851.7949,835.2747,855.0183,0
887.6557,867.1062,834.4689,877.9854,831.2454,0
904.1758,872.3443,835.2747,890.4762,906.9963,0
855.8242,880,849.3773,843.7363,844.5421,0
811.0989,876.3736,858.2418,812.3077,809.0842,0
817.1429,871.1356,854.2125,832.0513,816.337,0
866.3004,867.9121,841.3187,867.1062,819.1575,0
888.8644,866.3004,838.9011,879.597,922.3077,0
845.7509,869.5238,850.1832,840.5128,919.0842,0
801.8315,870.7326,857.4359,801.0256,857.8388,0
811.5018,867.9121,851.7949,818.3516,854.6154,0
863.0769,865.8975,837.2894,858.6447,864.2857,0
896.5201,866.3004,833.2601,881.6117,913.4432,0
864.6887,873.5531,848.9744,850.5861,879.597,0
813.1135,875.1649,859.0476,807.4725,848.1685,0
811.5018,868.718,851.7949,819.9634,823.5897,0
857.8388,866.3004,838.4982,867.1062,797.8022,0
899.7436,869.1208,835.6777,900.9524,888.8644,0
877.9854,877.5824,850.1832,869.9268,901.7582,0
830.0366,882.0146,861.4652,817.5458,841.7216,0
830.8425,874.3589,858.2418,822.7839,832.4542,0
868.718,865.4945,845.348,854.2125,853.8095,0
903.3699,863.8828,837.6923,882.8205,905.7875,0
880,868.315,845.7509,863.4799,888.0586,0
819.1575,870.7326,852.6007,815.1282,839.304,0
812.7106,867.1062,849.7802,817.9487,821.5751,0
848.5714,861.8681,842.5275,858.2418,802.6374,0
896.1172,859.0476,835.6777,897.7289,871.9414,0
886.4469,863.4799,840.9158,883.2234,896.9231,0
823.5897,871.5385,856.2271,832.8571,856.6301,0
812.3077,869.9268,861.4652,821.978,868.718,0
848.1685,867.1062,855.0183,850.1832,829.2308,0
893.2967,864.6887,842.1245,892.0879,896.1172,0
889.2674,869.5238,841.7216,884.0293,939.2308,0
831.2454,875.5677,855.4213,827.2161,844.5421,0
801.4286,866.3004,856.2271,803.4432,830.0366,0
819.5604,858.6447,846.9597,833.663,844.9451,0
872.7473,859.8535,837.6923,883.6264,894.5055,0
883.2234,866.3004,844.9451,889.2674,915.4579,0
830.4396,873.1502,857.4359,843.3333,828.4249,0
807.0696,872.7473,858.6447,821.5751,791.3553,0
832.0513,867.5092,854.2125,847.7656,844.9451,0
886.8498,865.0916,843.3333,896.1172,875.9707,0
895.3113,867.1062,841.7216,897.326,905.3846,0
842.1245,872.7473,853.4066,845.7509,870.3297,0
815.1282,873.5531,857.8388,814.3223,850.1832,0
830.0366,865.8975,848.5714,826.8132,850.5861,0
879.597,859.8535,836.8865,877.5824,892.4908,0
900.9524,865.0916,838.4982,895.3113,921.9048,0
851.392,872.3443,853.0037,843.7363,906.5934,0
807.8755,871.1356,861.0623,816.337,882.4176,0
817.5458,870.3297,856.2271,838.0952,844.1392,0
868.718,869.5238,842.9304,877.5824,877.9854,0
897.7289,870.3297,838.9011,899.7436,882.8205,0
854.6154,877.9854,850.1832,860.2564,857.4359,0
803.0403,881.2088,857.033,815.9341,844.5421,0
812.7106,873.9561,858.2418,830.8425,819.9634,0
859.8535,864.6887,850.989,872.3443,830.0366,0
889.6703,865.0916,844.5421,896.9231,884.0293,0
857.8388,871.9414,857.033,871.1356,854.2125,0
807.0696,873.5531,866.7033,823.9927,832.8571,0
815.1282,867.5092,857.033,828.4249,838.4982,0
859.4506,863.4799,843.3333,865.8975,834.0659,0
893.6996,863.4799,839.304,892.0879,940.8425,0
872.3443,869.5238,850.5861,869.5238,890.4762,0
813.5165,874.7619,854.6154,820.3663,823.1868,0
810.293,871.1356,850.989,823.9927,820.7692,0
853.4066,865.4945,849.3773,862.674,862.674,0
898.9377,866.7033,839.304,894.1025,919.4872,0
881.6117,869.5238,842.5275,874.3589,915.8608,0
815.5311,870.3297,858.2418,817.9487,867.5092,0
808.6813,865.8975,855.4213,811.5018,851.392,0
847.7656,862.2711,843.7363,856.6301,844.9451,0
888.0586,861.0623,835.2747,893.2967,873.9561,0
879.597,862.674,840.9158,878.7912,887.2527,0
826.4103,867.5092,857.033,832.0513,831.6484,0
807.4725,866.3004,859.4506,819.5604,837.6923,0
834.8718,857.4359,852.1978,850.1832,809.8901,0
881.6117,853.0037,842.5275,887.6557,890.8792,0
882.8205,862.2711,842.9304,881.6117,921.0989,0
826.0073,870.3297,855.0183,824.3956,868.315,0
795.7875,865.8975,855.8242,800.6227,861.8681,0
820.7692,857.8388,849.3773,832.8571,809.0842,0
877.1795,857.8388,841.7216,878.3883,871.9414,0
886.4469,865.4945,839.707,880,907.8022,0
827.2161,867.9121,847.7656,826.0073,836.0806,0
797.8022,867.1062,859.0476,799.8168,845.7509,0
817.5458,862.674,856.2271,822.7839,853.0037,0
868.718,857.4359,838.0952,865.8975,883.2234,0
884.4323,862.674,834.8718,874.3589,924.7253,0
834.8718,869.1208,846.9597,825.6044,835.6777,0
799.8168,865.8975,848.9744,796.5934,795.3846,0
814.7253,861.4652,840.1099,820.3663,846.9597,0
871.5385,859.8535,826.0073,865.8975,873.5531,0
896.9231,861.0623,828.8278,882.0146,936.0073,0
855.4213,867.5092,847.3626,840.1099,892.4908,0
811.9048,866.7033,855.0183,803.4432,854.6154,0
820.7692,861.4652,846.5568,825.6044,887.2527,0
872.7473,860.6594,835.6777,877.1795,873.5531,0
904.1758,860.6594,835.6777,901.7582,916.2637,0
866.7033,863.8828,844.9451,863.4799,884.0293,0
814.7253,867.1062,857.8388,823.5897,821.1722,0
817.9487,862.674,855.0183,836.8865,835.2747,0
863.0769,857.4359,843.3333,882.8205,843.7363,0
901.7582,862.2711,840.9158,909.4139,902.5641,0
872.3443,869.1208,851.392,873.1502,943.663,0
817.1429,868.315,863.4799,822.381,856.6301,0
816.7399,864.6887,859.0476,824.7985,842.1245,0
854.6154,859.0476,848.1685,863.8828,872.3443,0
891.282,856.6301,840.5128,894.9084,884.4323,0
866.7033,861.4652,842.1245,867.9121,896.9231,0
808.2784,865.8975,856.6301,810.293,842.1245,0
799.011,861.0623,854.6154,802.2344,763.5531,0
832.8571,855.8242,840.5128,838.0952,806.6667,0
875.9707,857.4359,834.8718,875.9707,936.0073,0
871.1356,860.6594,842.9304,862.2711,920.293,0
815.5311,864.2857,854.6154,811.0989,841.3187,0
799.8168,861.8681,851.7949,796.1905,828.4249,0
832.8571,859.4506,844.1392,828.8278,851.392,0
877.5824,859.4506,832.4542,867.5092,911.0256,0
875.5677,863.8828,832.4542,857.033,910.2198,0
822.7839,874.7619,846.1539,811.0989,829.2308,0
803.0403,875.5677,851.7949,803.4432,836.0806,0
830.0366,867.5092,848.1685,839.304,854.6154,0
880.403,860.6594,836.8865,883.6264,891.685,0
891.685,863.4799,839.304,881.6117,904.1758,0
840.1099,869.5238,854.2125,833.663,846.1539,0
810.696,867.9121,855.8242,819.9634,849.3773,0
834.8718,859.8535,848.9744,848.1685,853.4066,0
885.2381,856.6301,838.9011,895.7143,875.5677,0
898.5348,862.2711,838.4982,904.1758,916.2637,0
841.3187,869.1208,850.1832,847.7656,881.2088,0
800.2198,869.5238,860.6594,813.9194,801.0256,0
818.3516,866.3004,852.6007,838.0952,803.4432,0
867.5092,863.4799,834.4689,880.403,851.392,0
884.4323,863.4799,835.6777,888.4615,887.2527,0
836.8865,867.1062,850.5861,842.9304,869.5238,0
795.7875,868.315,854.6154,808.2784,847.3626,0
811.9048,864.2857,848.1685,829.2308,860.2564,0
863.0769,859.8535,834.4689,874.3589,856.2271,0
892.4908,863.8828,832.0513,889.2674,902.967,0
856.6301,873.1502,849.3773,849.7802,868.315,0
811.5018,876.7766,857.4359,803.8461,818.3516,0
814.7253,871.9414,846.9597,810.696,852.1978,0
860.6594,865.8975,831.6484,862.2711,853.8095,0
898.9377,867.1062,826.4103,894.9084,896.1172,0
869.5238,870.7326,841.3187,859.0476,899.7436,0
813.5165,872.7473,853.8095,809.8901,823.5897,0
812.7106,866.3004,848.9744,822.7839,787.326,0
860.6594,861.4652,840.1099,866.7033,844.9451,0
902.967,864.6887,834.8718,896.9231,912.6374,0
880,873.9561,842.1245,876.3736,888.0586,0
825.2015,879.597,855.8242,826.8132,846.9597,0
826.0073,875.1649,853.8095,828.4249,877.5824,0
860.2564,867.1062,832.8571,867.9121,882.4176,0
900.1465,866.3004,819.5604,904.9817,894.1025,0
890.8792,871.9414,829.6337,889.2674,887.6557,0
832.4542,876.3736,844.9451,834.4689,799.4139,0
819.5604,872.7473,848.1685,830.0366,822.381,0
845.7509,863.8828,840.9158,863.8828,809.4872,0
885.6411,861.4652,829.6337,899.7436,866.3004,0
879.1942,869.5238,839.304,884.4323,919.8901,0
817.1429,874.3589,861.4652,828.022,784.9084,0
799.4139,869.5238,859.4506,811.5018,805.8608,0
833.663,863.8828,850.1832,840.1099,856.2271,0
883.2234,861.0623,841.3187,886.8498,899.3406,0
883.6264,866.3004,843.3333,880.403,932.381,0
823.9927,873.5531,856.2271,831.6484,879.597,0
799.4139,870.3297,853.0037,807.0696,853.8095,0
828.022,863.0769,842.1245,830.8425,823.9927,0
873.1502,856.6301,832.4542,880,867.5092,0
881.2088,863.4799,838.4982,878.7912,878.7912,0
835.6777,871.1356,855.4213,836.0806,828.4249,0
807.8755,869.1208,859.4506,815.9341,824.7985,0
827.619,865.8975,852.6007,841.3187,780.4762,0
882.8205,864.6887,840.9158,888.8644,841.3187,0
904.5787,868.718,843.7363,896.5201,911.4286,0
855.0183,875.1649,857.8388,858.6447,880.8058,0
816.337,874.3589,861.8681,825.6044,819.1575,0
832.8571,871.5385,855.0183,841.3187,816.7399,0
884.4323,867.5092,844.5421,885.6411,880.8058,0
906.1905,864.6887,841.7216,892.4908,933.9927,0
860.2564,869.1208,850.1832,849.7802,888.8644,0
819.5604,873.1502,860.6594,810.293,829.2308,0
833.2601,873.1502,861.4652,828.022,820.7692,0
880.403,867.1062,844.5421,873.5531,852.1978,0
911.4286,870.3297,839.707,897.326,913.8461,0
875.1649,877.9854,855.4213,863.4799,846.9597,0
819.5604,876.7766,865.0916,822.7839,830.4396,0
811.0989,869.5238,860.6594,831.2454,892.4908,0
850.5861,863.4799,850.989,868.718,884.0293,0
886.8498,865.4945,848.9744,896.9231,918.2784,0
861.8681,872.3443,856.2271,867.9121,946.4835,0
803.8461,873.1502,861.0623,815.1282,845.348,0
802.6374,867.1062,857.4359,816.337,828.8278,0
850.989,863.8828,848.1685,861.0623,873.9561,0
894.5055,865.4945,840.1099,894.1025,907.3993,0
877.5824,870.3297,845.348,873.1502,893.2967,0
819.5604,874.3589,857.8388,818.7546,801.8315,0
812.7106,871.5385,859.0476,816.7399,771.2088,0
850.989,865.8975,848.5714,858.2418,842.5275,0
892.8938,863.0769,836.4835,893.6996,907.8022,0
884.4323,871.1356,846.1539,881.2088,904.9817,0
828.8278,878.7912,858.2418,830.8425,888.8644,0
814.7253,871.9414,850.989,824.7985,855.8242,0
850.5861,866.3004,846.9597,864.2857,840.5128,0
901.3553,865.0916,840.1099,899.3406,871.1356,0
898.9377,871.5385,846.1539,889.2674,891.282,0
838.9011,878.3883,862.674,841.7216,849.3773,0
815.5311,872.3443,860.6594,823.9927,857.8388,0
838.9011,864.6887,848.5714,853.0037,869.5238,0
888.4615,864.2857,839.707,895.7143,897.7289,0
891.282,867.1062,843.3333,883.2234,899.7436,0
837.6923,873.1502,855.0183,833.663,823.9927,0
811.0989,873.5531,857.033,813.9194,834.8718,0
827.2161,867.1062,849.7802,832.4542,877.1795,0
879.597,862.674,836.8865,880.403,851.392,0
895.3113,866.7033,842.5275,886.8498,851.392,0
844.9451,873.5531,853.8095,837.2894,856.2271,0
811.5018,874.3589,851.7949,813.5165,856.2271,0
832.8571,869.5238,855.0183,841.3187,827.619,0
875.1649,862.674,850.1832,881.2088,874.7619,0
893.6996,863.0769,842.9304,889.6703,963.0037,0
862.2711,869.9268,854.6154,853.0037,868.718,0
813.1135,871.1356,865.8975,812.7106,805.4579,0
814.7253,865.8975,862.2711,829.6337,863.8828,0
870.7326,861.8681,850.989,875.9707,907.3993,0
899.7436,864.2857,844.1392,883.6264,936.4103,0
857.4359,869.9268,855.4213,845.7509,876.7766,0
806.6667,871.5385,863.8828,808.2784,838.4982,0
810.696,865.8975,852.1978,818.7546,877.1795,0
854.6154,860.6594,836.0806,861.8681,869.1208,0
884.4323,862.674,830.4396,887.6557,886.0439,0
851.7949,869.9268,838.0952,854.6154,914.652,0
799.011,871.9414,852.1978,809.0842,899.7436,0
803.8461,867.9121,857.4359,822.381,834.4689,0
848.5714,865.0916,846.1539,860.2564,802.6374,0
889.2674,865.4945,837.2894,883.6264,871.9414,0
869.1208,867.1062,848.1685,857.8388,898.9377,0
815.9341,871.5385,861.4652,812.7106,851.392,0
818.3516,869.1208,854.2125,823.1868,860.6594,0
858.2418,863.4799,845.7509,859.8535,844.5421,0
902.5641,867.5092,842.9304,890.0732,855.8242,0
885.2381,869.5238,845.348,873.1502,882.8205,0
827.2161,871.9414,859.4506,821.978,825.2015,0
818.3516,869.9268,860.2564,822.381,838.0952,0
853.4066,864.6887,848.9744,857.033,800.2198,0
900.9524,865.8975,839.707,890.4762,839.707,0
888.0586,868.718,842.5275,879.1942,925.1282,0
824.7985,870.3297,856.6301,825.2015,865.4945,0
803.0403,865.4945,854.6154,807.8755,838.9011,0
827.619,859.8535,838.9011,835.2747,823.5897,0
874.7619,859.0476,831.2454,876.3736,850.1832,0
873.9561,864.6887,833.2601,870.3297,890.8792,0
819.5604,869.9268,843.3333,817.5458,856.2271,0
798.608,869.1208,847.7656,803.8461,851.392,0
826.8132,865.4945,837.2894,832.8571,791.3553,0
876.3736,859.8535,824.3956,874.7619,827.2161,0
883.6264,861.0623,834.0659,879.597,872.7473,0
830.8425,865.8975,851.392,830.8425,784.5055,0
801.0256,865.4945,850.5861,803.8461,839.304,0
819.1575,857.8388,845.348,821.5751,897.7289,0
865.4945,853.0037,837.2894,867.1062,863.0769,0
879.1942,858.6447,832.4542,881.2088,877.1795,0
832.4542,866.3004,842.1245,834.8718,833.663,0
797.3993,865.8975,849.3773,800.2198,840.5128,0
815.1282,862.2711,844.5421,823.9927,859.0476,0
865.4945,858.6447,834.4689,868.718,859.0476,0
890.0732,859.0476,839.707,890.0732,910.6227,0
848.1685,866.7033,852.6007,850.5861,884.8351,0
802.2344,867.9121,858.2418,809.8901,860.6594,0
813.5165,862.674,855.8242,828.4249,819.9634,0
861.0623,859.8535,836.4835,870.7326,843.7363,0
890.8792,862.2711,832.0513,892.4908,928.3516,0
855.0183,865.0916,850.1832,857.4359,867.9121,0
809.0842,871.9414,863.0769,819.1575,820.7692,0
813.9194,869.9268,858.2418,828.8278,854.6154,0
853.0037,861.8681,842.9304,866.7033,843.7363,0
884.4323,861.8681,834.0659,893.2967,896.9231,0
856.2271,867.9121,846.5568,861.8681,879.597,0
801.8315,871.1356,864.6887,817.9487,788.1319,0
798.608,863.4799,859.0476,825.2015,815.1282,0
840.5128,856.6301,836.0806,853.4066,783.6996,0
878.3883,859.0476,830.0366,877.9854,860.6594,0
859.4506,866.3004,846.1539,857.033,902.1612,0
801.0256,869.9268,855.4213,803.0403,851.392,0
796.5934,866.7033,852.6007,803.4432,890.0732,0
837.6923,862.674,844.1392,842.1245,864.6887,0
880.403,860.6594,835.6777,876.3736,888.8644,0
871.5385,864.2857,842.1245,868.315,888.8644,0
815.5311,867.5092,853.8095,820.7692,852.1978,0
797.3993,863.0769,849.7802,809.4872,896.5201,0
833.663,858.6447,838.9011,843.7363,844.1392,0
880.8058,856.6301,832.4542,890.0732,850.989,0
871.9414,861.4652,837.6923,877.9854,895.3113,0
821.978,869.9268,849.3773,819.9634,858.6447,0
804.2491,869.1208,852.1978,809.8901,855.8242,0
830.8425,861.4652,839.707,841.7216,856.2271,0
890.8792,859.0476,824.7985,885.6411,902.967,0
896.9231,864.2857,832.0513,884.4323,961.7949,0
834.8718,869.1208,851.7949,832.0513,851.392,0
795.3846,862.2711,857.8388,811.0989,780.0732,0
815.1282,857.4359,853.0037,837.2894,827.619,0
876.3736,857.4359,838.0952,879.597,875.5677,0
885.6411,859.8535,840.9158,879.597,900.1465,0
831.2454,869.1208,855.4213,834.0659,850.989,0
801.8315,869.5238,856.2271,809.8901,831.6484,0
825.6044,867.5092,852.6007,830.4396,821.1722,0
875.5677,865.4945,841.3187,873.9561,869.9268,0
891.282,864.6887,839.707,886.0439,931.1722,0
850.989,871.9414,854.6154,847.7656,893.2967,0
810.293,871.9414,859.8535,812.3077,866.3004,0
817.9487,864.2857,854.2125,830.8425,831.6484,0
865.8975,861.8681,844.9451,879.1942,854.2125,0
890.4762,863.8828,842.1245,900.1465,911.8315,0
857.033,869.5238,854.2125,861.0623,859.0476,0
810.293,870.3297,867.1062,817.1429,809.4872,0
813.1135,868.718,866.3004,832.8571,795.7875,0
859.4506,863.4799,850.989,872.7473,863.8828,0
895.7143,863.8828,842.1245,893.6996,924.3223,0
869.1208,872.7473,854.6154,864.2857,856.2271,0
818.7546,874.7619,861.4652,819.1575,826.0073,0
819.9634,870.7326,853.0037,827.2161,862.2711,0
862.674,864.2857,844.9451,866.3004,894.1025,0
896.1172,863.0769,842.5275,893.2967,904.5787,0
871.5385,869.1208,846.9597,865.0916,888.0586,0
816.337,873.9561,855.0183,813.9194,833.663,0
808.2784,871.1356,857.4359,816.337,821.1722,0
840.9158,866.3004,852.6007,853.0037,844.5421,0
876.7766,863.4799,842.1245,881.2088,920.696,0
864.2857,867.9121,845.7509,863.4799,900.5494,0
809.0842,872.7473,858.6447,815.9341,836.0806,0
801.0256,870.3297,855.8242,813.5165,856.2271,0
837.2894,867.5092,842.5275,849.7802,862.674,0
882.8205,865.4945,831.6484,882.4176,933.1868,0
870.7326,865.8975,836.0806,868.718,950.1099,0
810.293,871.9414,856.2271,819.1575,848.9744,0
791.3553,871.1356,856.2271,805.0549,810.293,0
820.3663,861.4652,840.1099,836.0806,853.4066,0
872.3443,859.4506,834.4689,877.5824,915.4579,0
877.9854,865.4945,841.7216,874.7619,944.0659,0
823.1868,872.7473,858.6447,828.022,854.6154,0
798.608,872.7473,861.8681,814.7253,829.2308,0
827.619,867.9121,850.1832,842.1245,841.7216,0
886.0439,863.8828,838.9011,890.4762,872.7473,0
900.9524,870.7326,842.9304,897.326,896.1172,0
846.5568,879.1942,855.0183,845.348,866.3004,0
813.1135,873.5531,859.4506,821.5751,836.0806,0
833.2601,866.7033,855.8242,843.7363,808.6813,0
883.2234,861.4652,838.4982,882.4176,914.652,0
895.7143,863.8828,833.663,891.282,939.6337,0
846.9597,872.7473,850.5861,845.7509,825.6044,0
808.2784,875.9707,861.0623,813.1135,819.9634,0
823.5897,871.5385,851.7949,832.8571,851.392,0
867.9121,864.6887,838.4982,875.1649,888.0586,0
886.4469,865.4945,841.7216,884.8351,922.3077,0
846.5568,875.1649,861.0623,840.1099,876.7766,0
803.4432,877.5824,869.5238,805.0549,827.619,0
816.337,871.1356,855.8242,824.3956,831.2454,0
867.1062,866.7033,841.7216,871.5385,803.8461,0
903.3699,870.7326,843.7363,894.9084,868.315,0
869.5238,878.7912,858.6447,862.674,907.8022,0
816.337,879.1942,866.7033,817.9487,805.8608,0
823.1868,874.3589,859.4506,826.8132,807.8755,0
863.4799,867.9121,849.7802,868.718,872.7473,0
898.5348,871.5385,848.9744,893.6996,896.5201,0
873.1502,880.8058,857.4359,863.8828,871.1356,0
816.7399,883.2234,867.1062,825.6044,812.7106,0
813.5165,878.7912,864.6887,836.4835,815.5311,0
856.6301,873.1502,854.2125,865.0916,880.403,0
903.3699,872.7473,846.5568,890.8792,942.8571,0
883.2234,880.403,857.033,875.1649,895.3113,0
827.619,883.2234,868.315,825.2015,845.7509,0
824.3956,874.7619,861.0623,824.3956,877.5824,0
864.2857,870.3297,851.7949,861.8681,838.9011,0
911.0256,873.5531,846.5568,900.1465,859.0476,0
897.326,880.8058,853.4066,888.0586,899.7436,0
833.663,882.4176,865.0916,836.0806,869.5238,0
819.9634,880.8058,865.8975,831.2454,817.5458,0
853.8095,878.3883,857.4359,857.4359,825.2015,0
892.8938,871.5385,848.1685,890.0732,954.5421,0
884.8351,873.9561,854.6154,881.2088,928.3516,0
829.6337,881.2088,869.5238,831.2454,805.8608,0
809.4872,881.2088,871.1356,819.5604,807.4725,0
834.4689,872.3443,859.4506,848.1685,782.0879,0
888.4615,867.9121,851.392,889.6703,838.0952,0
900.5494,876.7766,853.8095,889.2674,906.9963,0
838.9011,881.2088,859.4506,837.6923,840.5128,0
808.2784,876.3736,860.6594,819.1575,852.6007,0
834.4689,872.7473,853.0037,846.9597,836.8865,0
890.4762,869.5238,845.348,890.4762,851.7949,0
902.5641,871.5385,848.5714,897.326,920.293,0
855.0183,880.8058,860.2564,854.6154,848.9744,0
825.6044,881.2088,866.3004,832.4542,836.8865,0
841.3187,876.3736,865.0916,849.7802,858.6447,0
893.2967,871.5385,856.2271,891.282,886.4469,0
908.2051,869.1208,850.1832,899.3406,911.8315,0
862.2711,878.3883,863.0769,858.2418,852.1978,0
823.5897,880.8058,867.9121,821.5751,852.6007,0
832.4542,875.1649,860.2564,837.2894,850.989,0
874.3589,869.1208,849.7802,877.9854,847.7656,0
902.967,872.7473,844.5421,887.6557,948.0952,0
869.9268,880.8058,857.8388,853.0037,878.7912,0
820.7692,882.0146,867.1062,815.1282,787.7289,0
826.8132,877.1795,860.6594,826.4103,807.8755,0
875.5677,872.7473,846.5568,867.5092,861.4652,0
913.4432,876.7766,841.7216,892.4908,942.4542,0
881.2088,882.4176,854.2125,861.4652,905.3846,0
825.6044,880.8058,862.674,817.5458,820.7692,0
825.6044,875.5677,859.0476,832.0513,824.7985,0
861.4652,870.7326,850.1832,873.9561,845.348,0
894.9084,873.5531,843.7363,899.3406,882.8205,0
874.3589,879.1942,849.7802,875.5677,884.8351,0
817.5458,877.5824,862.2711,824.7985,830.8425,0
815.1282,874.3589,859.4506,823.9927,842.9304,0
856.6301,871.9414,848.1685,857.033,847.3626,0
897.326,871.1356,838.4982,887.2527,899.3406,0
884.0293,877.5824,840.9158,870.7326,901.3553,0
824.3956,882.8205,855.8242,813.9194,871.1356,0
814.3223,880,859.0476,810.293,880.403,0
852.1978,876.7766,851.392,854.2125,837.6923,0
896.5201,876.7766,838.9011,890.8792,890.4762,0
890.8792,881.2088,842.1245,877.1795,902.967,0
835.6777,888.0586,857.4359,826.4103,836.0806,0
814.7253,884.8351,857.8388,816.7399,819.9634,0
846.9597,876.7766,848.9744,851.392,806.6667,0
892.4908,871.9414,839.707,889.6703,897.7289,0
881.6117,872.7473,839.707,882.0146,917.8755,0
827.2161,877.9854,854.6154,832.8571,810.696,0
806.2637,878.3883,856.2271,810.696,830.8425,0
831.6484,875.9707,848.5714,839.304,852.1978,0
883.6264,873.1502,839.707,887.6557,863.0769,0
892.4908,876.7766,836.8865,888.4615,913.8461,0
840.5128,884.0293,850.1832,839.707,879.1942,0
811.9048,882.0146,856.2271,815.9341,872.7473,0
830.4396,874.7619,850.1832,842.9304,835.6777,0
882.4176,869.9268,838.4982,889.2674,869.1208,0
903.7729,874.3589,836.0806,898.5348,915.8608,0
855.0183,879.1942,851.7949,853.4066,870.7326,0
817.9487,877.9854,863.0769,824.7985,851.7949,0
837.6923,876.3736,861.8681,844.5421,822.7839,0
887.6557,869.1208,844.9451,885.6411,859.4506,0
910.6227,871.1356,839.304,904.5787,954.9451,0
873.5531,878.7912,856.2271,869.9268,891.685,0
830.4396,877.1795,867.5092,829.6337,824.7985,0
838.0952,870.7326,863.0769,838.9011,831.6484,0
885.2381,866.3004,849.3773,881.2088,805.0549,0
915.8608,870.3297,847.3626,908.2051,879.1942,0
880,876.3736,853.4066,873.9561,870.7326,0
821.978,879.1942,859.4506,823.1868,809.4872,0
825.2015,877.9854,859.8535,835.2747,793.3699,0
869.1208,872.3443,850.1832,878.3883,809.0842,0
905.3846,871.9414,846.5568,890.0732,905.7875,0
878.3883,878.3883,855.4213,856.6301,925.1282,0
819.5604,884.8351,865.8975,813.5165,834.4689,0
817.1429,881.6117,863.0769,817.9487,803.8461,0
858.2418,874.3589,853.8095,858.2418,814.7253,0
900.5494,872.3443,850.1832,892.0879,891.282,0
883.2234,877.5824,858.2418,872.3443,899.7436,0
826.8132,884.8351,868.315,828.022,804.2491,0
816.337,878.7912,862.674,832.8571,834.8718,0
846.5568,869.9268,853.0037,862.2711,826.4103,0
892.0879,869.5238,848.1685,893.2967,879.1942,0
890.0732,876.3736,858.6447,884.4323,910.6227,0
836.0806,882.8205,872.7473,835.2747,866.3004,0
824.7985,878.7912,869.1208,826.4103,828.8278,0
856.6301,873.1502,859.0476,856.2271,832.4542,0
902.5641,873.1502,847.3626,892.0879,903.7729,0
902.967,876.7766,855.0183,881.6117,889.6703,0
848.5714,881.6117,866.7033,828.8278,831.6484,0
828.022,881.6117,862.2711,824.7985,846.1539,0
854.6154,876.7766,856.2271,857.033,824.3956,0
908.2051,875.5677,844.9451,896.9231,878.7912,0
912.6374,878.7912,847.3626,896.9231,918.6813,0
852.6007,883.6264,863.4799,844.9451,827.619,0
821.978,882.8205,863.8828,821.1722,838.0952,0
842.9304,876.7766,855.4213,844.9451,879.597,0
889.2674,873.1502,844.9451,887.2527,902.1612,0
898.5348,875.5677,843.7363,891.685,948.9011,0
848.9744,880,855.4213,845.348,875.5677,0
815.1282,878.3883,859.8535,816.337,833.663,0
830.4396,873.5531,854.2125,839.707,824.3956,0
876.7766,871.1356,844.9451,886.8498,827.619,0
895.3113,873.5531,846.1539,898.9377,929.5604,0
850.5861,878.7912,861.0623,852.1978,855.4213,0
809.4872,875.9707,867.5092,819.1575,802.6374,0
821.978,870.3297,857.033,839.304,811.9048,0
869.1208,868.315,840.1099,880.403,844.1392,0
896.9231,870.7326,841.3187,897.7289,929.5604,0
859.4506,876.3736,855.4213,859.8535,863.8828,0
813.9194,877.5824,862.2711,820.3663,802.2344,0
820.3663,873.1502,861.4652,828.8278,799.8168,0
869.9268,867.9121,850.989,871.9414,822.381,0
904.9817,868.315,843.7363,900.1465,938.8278,0
871.5385,874.7619,853.4066,867.9121,893.6996,0
820.7692,876.7766,862.2711,821.5751,809.4872,0
821.1722,869.5238,858.2418,826.0073,833.2601,0
859.8535,866.3004,848.5714,865.0916,813.5165,0
896.1172,869.9268,844.1392,893.2967,909.4139,0
877.9854,875.1649,855.0183,865.0916,904.9817,0
819.1575,880.403,867.1062,816.337,792.1612,0
811.5018,876.7766,863.0769,824.3956,816.7399,0
853.4066,872.3443,851.392,861.0623,794.1758,0
894.9084,872.7473,842.9304,887.6557,908.2051,0
883.2234,877.1795,850.5861,869.1208,904.5787,0
826.0073,882.4176,866.7033,821.1722,839.304,0
814.7253,880,863.8828,817.9487,871.9414,0
850.1832,875.1649,853.4066,853.4066,767.1795,0
890.8792,871.9414,845.348,894.1025,849.7802,0
884.4323,877.1795,849.7802,883.2234,929.5604,0
826.8132,881.6117,863.0769,828.8278,854.6154,0
802.2344,875.1649,861.4652,819.1575,831.2454,0
828.022,867.5092,850.1832,848.9744,875.5677,0
880.403,867.5092,842.9304,885.6411,952.9304,0
886.4469,873.9561,848.9744,884.0293,936.8132,0
832.8571,879.1942,861.4652,836.0806,855.0183,0
804.652,877.9854,865.0916,823.5897,829.6337,0
835.6777,872.7473,851.7949,847.7656,820.7692,0
889.6703,865.8975,837.6923,885.6411,893.6996,0
891.282,865.8975,842.5275,893.6996,925.5311,0
838.9011,874.3589,858.2418,847.7656,846.1539,0
810.293,875.1649,860.2564,822.381,819.5604,0
830.0366,867.5092,851.392,838.9011,818.7546,0
880.403,863.0769,840.5128,884.4323,859.8535,0
897.326,869.1208,840.1099,894.9084,891.282,0
854.2125,877.9854,855.8242,846.9597,836.4835,0
814.3223,875.1649,863.8828,816.7399,880.403,0
825.6044,868.718,857.4359,839.304,858.2418,0
877.1795,867.9121,844.1392,888.4615,851.392,0
902.5641,870.3297,843.3333,904.9817,943.663,0
865.0916,878.3883,857.8388,864.2857,903.3699,0
821.1722,882.4176,864.2857,829.2308,803.0403,0
829.2308,876.7766,859.4506,841.7216,771.6117,0
877.1795,869.9268,847.3626,884.0293,819.1575,0
905.7875,872.3443,839.304,898.5348,913.8461,0
871.1356,879.1942,849.3773,854.2125,859.4506,0
819.1575,880,863.0769,812.7106,784.9084,0
819.1575,874.7619,857.4359,826.0073,850.5861,0
864.6887,867.5092,842.5275,867.9121,851.7949,0
901.7582,867.1062,833.663,892.0879,881.6117,0
876.3736,873.9561,844.9451,864.6887,919.8901,0
817.5458,877.9854,862.2711,820.7692,834.4689,0
809.0842,870.7326,857.8388,821.5751,832.8571,0
849.3773,867.5092,846.5568,858.2418,883.2234,0
892.8938,870.3297,846.9597,889.6703,923.5165,0
878.3883,876.7766,858.2418,876.7766,919.4872,0
821.5751,881.2088,865.4945,824.3956,826.0073,0
812.3077,878.7912,860.6594,817.5458,823.1868,0
852.6007,877.9854,853.0037,858.6447,839.707,0
900.1465,877.9854,840.5128,890.8792,904.9817,0
886.0439,879.1942,848.5714,873.5531,890.4762,0
825.6044,883.6264,868.718,826.4103,810.696,0
811.5018,880.8058,866.3004,819.9634,858.6447,0
844.5421,874.7619,857.4359,851.7949,822.7839,0
891.282,871.9414,849.3773,893.2967,857.8388,0
889.6703,877.5824,851.392,887.6557,933.5897,0
834.0659,880,863.4799,840.5128,849.3773,0
811.9048,872.7473,862.2711,830.8425,812.3077,0
842.1245,871.1356,854.2125,857.4359,815.1282,0
893.2967,871.9414,844.5421,903.3699,871.9414,0
899.3406,873.9561,846.1539,906.9963,908.2051,0
846.9597,877.9854,860.6594,854.6154,851.7949,0
822.7839,877.5824,867.1062,834.4689,838.0952,0
847.7656,874.3589,861.0623,859.4506,807.8755,0
902.967,873.5531,846.5568,902.5641,877.5824,0
915.4579,875.5677,847.7656,906.5934,948.9011,0
857.4359,879.1942,860.6594,857.8388,864.2857,0
821.5751,877.5824,861.0623,826.4103,843.7363,0
840.9158,872.7473,857.4359,847.7656,817.1429,0
887.2527,871.5385,844.5421,886.0439,840.5128,0
904.1758,875.1649,841.7216,890.0732,928.7546,0
859.8535,883.2234,860.6594,850.5861,878.7912,0
818.3516,883.6264,865.0916,815.5311,861.4652,0
828.022,876.7766,857.8388,826.4103,832.4542,0
869.1208,868.718,846.1539,866.7033,801.8315,0
897.326,869.9268,845.7509,886.0439,917.4725,0
861.8681,878.7912,862.2711,849.3773,900.5494,0
810.293,877.5824,869.9268,810.293,816.337,0
819.9634,873.9561,862.2711,827.2161,798.608,0
864.2857,868.315,853.4066,870.3297,818.7546,0
890.8792,868.718,853.4066,893.2967,932.381,0
861.4652,875.9707,859.4506,862.674,903.3699,0
811.9048,876.7766,867.9121,817.9487,805.0549,0
813.9194,870.3297,865.0916,830.8425,817.1429,0
853.4066,864.2857,850.1832,869.9268,854.6154,0
889.6703,871.1356,843.7363,893.2967,901.3553,0
873.1502,882.4176,857.8388,869.9268,893.2967,0
819.1575,884.0293,870.3297,818.3516,846.9597,0
815.5311,878.3883,865.0916,822.7839,856.2271,0
861.4652,874.7619,856.6301,867.9121,821.978,0
902.967,875.9707,849.7802,906.5934,880,0
885.6411,880.8058,852.1978,888.8644,931.1722,0
832.8571,882.8205,863.4799,836.4835,843.7363,0
818.7546,877.1795,861.8681,828.022,827.619,0
844.9451,871.5385,850.5861,852.6007,811.0989,0
891.685,868.718,843.7363,890.8792,889.6703,0
883.6264,870.7326,849.7802,879.1942,956.5568,0
823.5897,874.3589,865.0916,826.8132,850.5861,0
807.8755,873.9561,871.5385,816.7399,850.5861,0
836.0806,871.5385,856.2271,844.9451,882.8205,0
883.6264,867.9121,834.8718,884.0293,898.5348,0
886.8498,871.9414,840.1099,879.597,906.5934,0
834.8718,880.8058,861.4652,829.6337,844.1392,0
811.5018,876.7766,859.8535,814.3223,812.7106,0
837.2894,870.7326,855.4213,846.5568,775.6411,0
884.0293,869.5238,853.4066,889.2674,848.9744,0
890.0732,872.7473,852.1978,886.8498,907.3993,0
838.9011,877.9854,863.8828,838.4982,831.6484,0
808.2784,877.1795,870.3297,820.3663,818.3516,0
835.2747,873.5531,867.9121,846.9597,852.1978,0
888.4615,870.7326,853.0037,886.4469,902.1612,0
899.7436,872.7473,844.9451,893.6996,954.5421,0
852.6007,878.3883,859.8535,854.6154,912.2344,0
817.9487,882.8205,865.4945,828.8278,837.2894,0
833.2601,877.5824,856.2271,843.7363,850.5861,0
881.6117,870.7326,844.5421,883.6264,874.3589,0
905.3846,871.9414,840.9158,896.9231,918.6813,0
861.4652,878.3883,853.8095,853.4066,861.8681,0
814.3223,877.9854,860.6594,812.3077,815.5311,0
826.0073,874.7619,857.033,830.8425,821.978,0
869.1208,870.7326,847.3626,870.3297,857.4359,0
899.3406,873.5531,842.1245,886.4469,912.2344,0
870.7326,880.8058,853.4066,857.033,884.8351,0
817.5458,880.403,861.4652,812.3077,836.8865,0
820.3663,874.7619,857.033,827.2161,810.696,0
863.0769,869.9268,849.3773,874.3589,812.7106,0
892.8938,868.718,842.1245,895.7143,899.7436,0
868.315,873.9561,848.5714,869.1208,864.2857,0
815.1282,880,862.2711,824.3956,834.0659,0
815.9341,876.3736,862.674,824.7985,898.5348,0
854.2125,871.9414,854.2125,859.0476,871.5385,0
889.6703,868.718,841.7216,892.8938,884.4323,0
871.1356,873.9561,846.1539,867.9121,918.6813,0
814.3223,880,860.2564,812.7106,859.0476,0
809.8901,873.9561,852.6007,819.1575,809.8901,0
846.1539,869.1208,843.3333,862.674,844.9451,0
887.2527,869.1208,842.9304,900.1465,892.4908,0
880.8058,875.1649,852.1978,882.4176,875.1649,0
825.6044,880.8058,863.4799,825.6044,833.663,0
811.0989,875.5677,858.2418,818.7546,812.7106,0
846.1539,870.7326,844.9451,853.4066,824.3956,0
894.9084,867.1062,835.6777,890.4762,917.8755,0
893.2967,871.1356,845.7509,886.4469,920.293,0
832.8571,877.5824,861.0623,833.2601,811.9048,0
809.8901,875.5677,861.4652,813.1135,791.3553,0
836.8865,868.718,853.8095,847.3626,816.7399,0
882.4176,865.0916,838.0952,891.282,913.0403,0
892.0879,872.7473,842.1245,886.0439,925.5311,0
842.5275,879.597,861.8681,835.2747,813.5165,0
809.0842,877.1795,863.8828,817.5458,791.7582,0
834.0659,871.9414,855.8242,844.5421,826.0073,0
888.8644,869.5238,842.9304,888.8644,862.674,0
892.4908,873.5531,837.6923,886.8498,904.9817,0
845.348,878.7912,848.5714,834.4689,859.8535,0
816.337,879.1942,850.5861,813.5165,800.2198,0
828.8278,874.7619,844.9451,835.6777,769.597,0
879.597,869.5238,838.4982,871.1356,825.6044,0
900.1465,871.1356,836.4835,883.6264,940.8425,0
852.1978,877.5824,849.3773,846.9597,877.9854,0
814.7253,877.5824,860.2564,811.9048,868.315,0
830.8425,875.9707,858.6447,825.2015,882.4176,0
875.5677,871.1356,843.3333,864.6887,826.8132,0
900.1465,869.9268,838.9011,887.2527,910.2198,0
865.0916,875.5677,855.4213,851.392,882.4176,0
818.7546,877.5824,865.0916,814.3223,821.978,0
823.1868,872.7473,857.8388,827.2161,848.5714,0
867.5092,869.1208,840.9158,865.0916,844.9451,0
899.7436,870.7326,840.5128,894.1025,911.0256,0
874.7619,877.1795,858.2418,866.7033,926.7399,0
822.7839,881.6117,867.1062,818.3516,881.6117,0
820.7692,878.7912,863.0769,828.8278,834.8718,0
866.7033,873.5531,850.1832,872.3443,787.7289,0
908.608,868.718,838.9011,895.3113,871.5385,0
885.2381,875.1649,848.5714,873.5531,914.2491,0
828.8278,878.3883,859.0476,830.4396,861.0623,0
822.381,871.9414,851.7949,833.2601,862.2711,0
855.8242,871.5385,846.9597,870.3297,848.1685,0
898.5348,871.5385,842.9304,902.967,893.6996,0
888.0586,872.3443,845.7509,889.6703,876.7766,0
830.4396,878.3883,856.6301,833.663,792.5641,0
819.9634,874.7619,857.033,823.1868,886.8498,0
853.4066,868.315,844.5421,858.2418,874.7619,0
897.326,871.1356,835.2747,896.1172,868.315,0
889.2674,877.9854,840.9158,882.0146,921.0989,0
832.4542,878.3883,853.4066,828.022,834.0659,0
817.9487,873.9561,857.4359,819.9634,797.8022,0
848.9744,871.9414,850.989,848.5714,869.5238,0
898.9377,870.7326,842.5275,889.6703,909.011,0
896.9231,874.3589,846.9597,888.0586,909.011,0
844.5421,884.0293,861.4652,833.663,825.6044,0
821.5751,882.8205,864.2857,813.1135,774.4323,0
843.7363,873.5531,851.7949,841.7216,809.4872,0
891.282,867.5092,836.0806,884.4323,860.6594,0
900.9524,873.9561,836.4835,886.8498,923.9194,0
846.5568,883.2234,853.0037,840.1099,904.1758,0
809.0842,878.7912,861.0623,813.1135,899.3406,0
828.022,871.5385,849.7802,830.4396,803.4432,0
879.597,867.5092,838.4982,872.3443,858.2418,0
892.8938,871.5385,842.1245,885.2381,952.1245,0
842.5275,876.7766,852.6007,840.5128,825.6044,0
809.4872,875.5677,859.4506,813.9194,815.1282,0
825.2015,873.9561,853.0037,833.2601,869.5238,0
872.7473,869.1208,837.6923,872.3443,890.0732,0
893.2967,866.7033,834.8718,886.8498,939.2308,0
850.5861,873.5531,850.989,847.3626,856.2271,0
805.0549,877.1795,860.2564,814.3223,848.9744,0
812.7106,873.9561,856.6301,833.2601,912.2344,0
862.2711,865.4945,848.9744,873.5531,902.5641,0
890.0732,865.0916,849.3773,894.1025,929.5604,0
854.6154,872.7473,863.4799,867.5092,859.0476,0
809.4872,872.7473,869.5238,828.022,822.381,0
810.293,868.315,861.0623,833.2601,828.022,0
850.989,863.0769,849.3773,866.7033,811.9048,0
889.6703,862.2711,839.304,891.685,889.6703,0
866.3004,871.5385,842.9304,865.0916,890.8792,0
814.7253,877.5824,857.4359,815.9341,818.3516,0
817.5458,872.7473,856.2271,821.5751,815.9341,0
858.6447,869.5238,844.9451,862.674,871.5385,0
900.1465,868.315,838.9011,888.0586,921.9048,0
879.597,869.1208,845.348,868.315,902.1612,0
818.3516,875.9707,862.674,825.6044,853.8095,0
812.7106,876.3736,866.3004,825.2015,855.8242,0
851.392,872.7473,855.4213,856.6301,849.7802,0
893.2967,871.1356,844.9451,886.4469,900.5494,0
884.4323,875.1649,853.0037,878.3883,868.718,0
824.7985,879.1942,865.4945,829.2308,811.0989,0
810.293,875.1649,860.6594,819.9634,844.5421,0
840.1099,869.5238,850.989,855.4213,830.4396,0
881.2088,865.8975,844.1392,894.1025,871.9414,0
879.1942,871.5385,846.5568,880.403,899.3406,0
823.5897,877.9854,852.6007,830.0366,836.8865,0
808.6813,872.3443,852.6007,816.7399,794.9817,0
841.3187,869.9268,848.9744,850.5861,821.978,0
884.0293,868.315,839.707,892.0879,913.4432,0
882.0146,870.3297,843.3333,884.8351,937.2161,0
831.2454,877.1795,862.674,837.2894,886.8498,0
798.2051,874.3589,864.2857,811.9048,883.6264,0
815.5311,867.5092,855.0183,835.6777,832.8571,0
867.1062,864.2857,843.3333,878.3883,860.2564,0
878.3883,868.315,844.9451,884.4323,936.0073,0
835.2747,873.9561,858.6447,843.7363,884.8351,0
801.0256,870.7326,860.2564,812.7106,856.6301,0
817.9487,866.7033,856.6301,841.3187,781.685,0
875.9707,867.5092,842.1245,889.2674,819.9634,0
902.967,873.5531,836.0806,898.9377,897.7289,0
859.8535,881.2088,848.1685,859.4506,833.2601,0
824.7985,882.4176,859.0476,828.022,801.8315,0
832.4542,877.5824,859.0476,847.3626,839.304,0
873.9561,869.1208,844.5421,880,859.0476,0
904.1758,869.9268,839.707,896.5201,873.9561,0
862.674,879.597,856.6301,864.6887,806.2637,0
815.1282,883.6264,871.1356,827.2161,753.8828,0
825.6044,880.8058,867.5092,839.707,807.8755,0
871.5385,873.1502,851.7949,876.7766,842.5275,0
901.3553,873.9561,848.1685,902.5641,905.3846,0
871.5385,881.2088,860.6594,871.9414,904.1758,0
819.9634,881.6117,871.1356,825.2015,875.9707,0
820.7692,876.7766,865.4945,840.1099,844.5421,0
863.8828,873.5531,852.6007,875.1649,816.7399,0
896.9231,875.1649,841.7216,894.9084,925.1282,0
873.1502,883.2234,850.1832,871.9414,941.6484,0
815.1282,887.6557,864.2857,819.9634,854.6154,0
812.3077,882.8205,858.2418,816.7399,813.5165,0
847.7656,876.7766,848.9744,849.7802,797.8022,0
883.2234,873.9561,842.5275,878.3883,920.696,0
875.1649,876.3736,848.5714,868.315,909.4139,0
826.4103,879.597,860.2564,821.1722,861.8681,0
822.381,878.3883,858.6447,814.7253,927.9487,0
850.5861,871.1356,855.4213,850.1832,875.1649,0
886.0439,866.3004,845.7509,883.2234,882.4176,0
889.6703,873.9561,846.9597,872.7473,907.3993,0
837.2894,883.6264,857.8388,826.8132,881.6117,0
813.9194,878.7912,851.392,813.9194,875.9707,0
840.5128,870.7326,841.7216,841.7216,828.4249,0
885.2381,867.5092,834.8718,880,876.3736,0
888.8644,873.9561,840.5128,880.8058,944.0659,0
838.4982,882.8205,855.8242,840.9158,875.9707,0
811.5018,877.5824,856.2271,825.6044,841.3187,0
832.0513,871.9414,853.8095,853.4066,813.1135,0
884.8351,869.5238,844.9451,890.8792,886.8498,0
898.1319,867.5092,839.304,883.2234,961.7949,0
851.392,874.7619,856.2271,842.9304,869.9268,0
819.5604,875.9707,864.6887,820.3663,810.293,0
833.2601,870.7326,852.1978,839.304,838.9011,0
883.6264,869.5238,837.6923,878.7912,890.4762,0
898.5348,872.3443,840.1099,883.2234,886.0439,0
844.5421,878.7912,855.0183,845.7509,863.4799,0
806.6667,877.5824,860.2564,808.6813,845.7509,0
817.5458,870.7326,853.0037,817.5458,830.4396,0
861.8681,866.3004,842.5275,861.4652,855.4213,0
884.8351,869.5238,840.5128,875.1649,916.6667,0
841.7216,875.1649,854.2125,835.6777,877.9854,0
796.5934,876.3736,861.8681,799.4139,810.293,0
811.9048,872.7473,856.2271,826.8132,783.6996,0
860.6594,868.315,846.5568,869.9268,826.4103,0
890.8792,871.5385,842.5275,882.8205,919.0842,0
858.6447,879.1942,855.0183,853.0037,880.403,0
812.7106,882.8205,866.3004,813.5165,796.9963,0
814.7253,875.5677,861.4652,822.381,794.5787,0
848.1685,868.718,844.5421,857.033,836.8865,0
886.0439,870.7326,838.4982,886.8498,909.011,0
867.9121,876.3736,853.8095,867.1062,925.5311,0
817.9487,883.2234,868.315,823.5897,857.033,0
817.9487,879.597,865.4945,830.4396,814.7253,0
864.6887,873.9561,850.1832,869.5238,873.1502,0
912.2344,876.3736,839.707,902.5641,941.2454,0
891.685,883.6264,848.9744,875.1649,888.0586,0
831.6484,889.2674,863.8828,825.6044,847.3626,0
828.8278,885.6411,863.4799,826.8132,813.5165,0
853.4066,874.7619,850.1832,856.2271,773.2234,0
884.8351,868.718,838.4982,882.0146,882.8205,0
874.7619,875.1649,846.1539,867.1062,915.0549,0
816.7399,879.597,861.8681,824.7985,820.7692,0
805.4579,877.1795,866.7033,814.7253,867.5092,0
835.6777,870.7326,859.4506,842.1245,895.7143,0
879.1942,866.3004,844.1392,881.6117,904.1758,0
881.2088,872.3443,848.1685,877.9854,906.5934,0
828.022,880,865.0916,830.8425,822.7839,0
807.8755,880,867.9121,817.9487,790.9524,0
830.8425,871.1356,851.392,840.5128,805.4579,0
880,867.9121,839.304,880.8058,880.403,0
891.685,875.5677,850.1832,882.8205,957.3626,0
840.5128,883.2234,863.8828,840.5128,888.0586,0
815.9341,881.6117,862.2711,820.3663,833.2601,0
839.707,875.9707,857.4359,841.7216,794.9817,0
886.0439,872.3443,853.8095,884.0293,868.315,0
889.6703,874.3589,850.1832,885.6411,971.0623,0
840.5128,880.403,854.2125,847.3626,902.1612,0
812.7106,880,862.2711,824.3956,829.6337,0
830.0366,877.5824,855.8242,841.3187,809.8901,0
881.6117,873.5531,840.5128,891.685,842.9304,0
904.9817,875.1649,840.1099,897.7289,883.2234,0
861.0623,881.2088,850.989,847.7656,824.3956,0
815.5311,877.5824,855.4213,816.7399,838.0952,0
830.4396,874.3589,857.4359,840.1099,854.6154,0
882.0146,871.5385,846.9597,878.3883,876.7766,0
909.8168,874.7619,840.9158,894.1025,934.7985,0
870.3297,882.4176,857.4359,857.033,898.1319,0
817.9487,880,867.1062,821.5751,825.6044,0
829.6337,875.9707,863.8828,835.6777,815.9341,0
877.5824,875.9707,854.6154,873.5531,880.403,0
903.7729,875.9707,846.9597,900.1465,950.9158,0
878.3883,883.2234,856.2271,873.5531,864.2857,0
830.4396,887.6557,867.5092,836.4835,803.0403,0
830.4396,882.4176,863.4799,843.3333,825.6044,0
872.3443,876.3736,855.8242,875.9707,827.619,0
907.3993,876.3736,849.7802,903.7729,852.6007,0
881.6117,882.0146,853.4066,877.1795,865.0916,0
832.0513,885.2381,865.0916,827.2161,838.9011,0
827.619,880.8058,860.6594,826.4103,832.8571,0
856.6301,876.3736,851.7949,863.4799,807.0696,0
903.3699,876.7766,853.4066,898.9377,856.6301,0
896.5201,884.0293,866.3004,883.6264,935.6044,0
837.2894,888.4615,872.7473,827.2161,857.033,0
829.2308,884.0293,868.718,831.6484,804.2491,0
863.0769,877.9854,862.2711,869.9268,784.9084,0
899.7436,875.1649,852.1978,900.1465,863.0769,0
898.1319,881.2088,852.6007,890.8792,877.1795,0
840.5128,886.8498,863.4799,840.5128,790.9524,0
817.1429,884.4323,863.4799,833.663,865.0916,0
846.9597,879.597,851.7949,862.674,858.2418,0
896.9231,875.9707,842.5275,900.5494,869.5238,0
898.5348,879.597,845.348,896.9231,947.6923,0
845.7509,884.0293,858.6447,843.7363,919.8901,0
821.1722,880.8058,862.2711,825.2015,869.1208,0
848.1685,875.5677,853.0037,850.989,862.674,0
898.9377,873.1502,844.9451,894.5055,887.6557,0
903.3699,876.3736,846.1539,896.5201,914.2491,0
856.2271,884.0293,859.8535,849.3773,900.9524,0
820.7692,883.6264,863.0769,824.3956,852.1978,0
838.0952,877.5824,852.6007,843.3333,806.6667,0
894.9084,875.1649,843.3333,886.8498,853.4066,0
909.8168,875.9707,842.9304,893.6996,925.1282,0
859.8535,879.1942,857.8388,853.0037,863.8828,0
823.9927,880.8058,867.1062,822.7839,823.1868,0
836.0806,876.3736,862.674,834.8718,836.0806,0
879.1942,869.1208,845.7509,874.3589,854.6154,0
903.3699,873.5531,836.4835,893.6996,901.7582,0
861.8681,882.4176,854.6154,859.4506,896.1172,0
819.1575,882.8205,863.8828,827.2161,881.6117,0
827.619,877.1795,853.4066,839.707,833.663,0
867.9121,869.9268,845.348,879.597,866.3004,0
899.3406,871.9414,849.3773,901.7582,953.7363,0
868.718,880.403,861.8681,867.5092,902.1612,0
819.9634,880.403,869.9268,832.0513,810.293,0
825.2015,877.5824,868.315,840.1099,842.9304,0
868.315,874.3589,857.033,873.1502,891.685,0
897.326,872.7473,846.1539,892.0879,933.1868,0
869.5238,877.5824,855.8242,864.6887,900.5494,0
816.7399,880.8058,872.7473,821.1722,847.7656,0
817.9487,877.5824,865.4945,821.1722,825.2015,0
862.2711,874.7619,852.1978,861.4652,802.6374,0
906.1905,874.7619,848.1685,897.7289,840.5128,0
891.282,881.2088,859.4506,877.1795,858.2418,0
832.8571,886.8498,873.1502,830.4396,792.967,0
828.8278,882.8205,867.9121,830.0366,780.0732,0
865.0916,877.1795,862.2711,864.2857,834.4689,0
903.7729,875.9707,853.4066,896.1172,930.7692,0
893.2967,882.0146,853.8095,877.9854,915.0549,0
834.4689,887.2527,866.3004,831.2454,833.663,0
821.1722,882.4176,862.674,821.1722,840.5128,0
854.2125,876.7766,853.0037,851.392,863.8828,0
893.6996,873.1502,848.5714,891.685,892.8938,0
890.4762,876.7766,854.2125,882.0146,897.326,0
842.1245,884.0293,864.6887,830.0366,842.9304,0
821.1722,883.6264,863.4799,813.5165,860.2564,0
844.9451,878.7912,854.2125,848.1685,856.2271,0
896.1172,880,848.9744,887.6557,867.1062,0
904.9817,884.4323,855.0183,883.2234,918.2784,0
853.0037,888.4615,865.4945,834.8718,907.3993,0
824.7985,885.2381,867.1062,814.3223,858.6447,0
844.1392,879.1942,856.2271,841.7216,805.0549,0
896.9231,877.5824,845.7509,886.4469,861.4652,0
911.0256,878.7912,855.4213,894.5055,941.2454,0
858.6447,884.0293,872.3443,847.7656,883.6264,0
822.7839,884.4323,873.1502,817.1429,831.2454,0
836.8865,880,865.8975,840.5128,853.0037,0
886.0439,875.5677,857.033,888.0586,878.7912,0
909.011,878.7912,855.0183,897.7289,883.2234,0
863.0769,886.0439,863.8828,855.8242,853.8095,0
824.3956,884.8351,868.315,825.6044,904.1758,0
838.4982,877.5824,860.2564,840.5128,888.0586,0
875.5677,868.718,846.9597,877.9854,868.718,0
901.3553,871.9414,848.9744,896.9231,892.8938,0
866.7033,878.3883,865.4945,865.0916,863.8828,0
813.5165,879.597,876.3736,824.7985,842.5275,0
816.337,877.1795,873.1502,832.8571,806.2637,0
862.2711,873.1502,860.6594,872.3443,851.392,0
901.3553,875.1649,856.6301,897.7289,936.8132,0
873.1502,880.403,864.2857,864.6887,927.9487,0
817.1429,880,871.1356,819.1575,872.3443,0
817.9487,875.5677,869.9268,830.8425,841.3187,0
859.0476,871.5385,859.8535,867.9121,824.3956,0
895.7143,873.1502,851.392,894.5055,902.1612,0
877.9854,880,861.0623,877.9854,930.7692,0
826.8132,884.0293,872.7473,826.8132,848.9744,0
826.0073,882.0146,868.315,824.7985,803.4432,0
859.4506,876.3736,859.0476,862.2711,843.7363,0
901.3553,875.1649,851.392,901.3553,913.8461,0
893.6996,879.597,853.4066,887.6557,933.5897,0
833.663,884.4323,867.1062,832.8571,842.9304,0
819.1575,881.2088,868.718,824.7985,786.5201,0
850.5861,874.3589,858.6447,856.2271,825.6044,0
901.3553,876.3736,851.7949,890.4762,882.8205,0
898.9377,881.2088,856.2271,877.5824,927.1429,0
832.8571,880,867.5092,823.5897,872.7473,0
809.8901,877.1795,869.1208,813.9194,808.6813,0
843.3333,875.5677,858.6447,846.5568,827.2161,0
888.4615,871.9414,843.3333,884.0293,906.1905,0
886.0439,874.3589,849.3773,887.2527,924.3223,0
834.8718,882.0146,868.315,844.1392,834.0659,0
811.9048,880,868.718,825.2015,792.5641,0
839.304,877.5824,865.8975,855.4213,804.652,0
893.6996,874.3589,856.2271,901.3553,879.1942,0
894.1025,874.3589,847.3626,902.5641,919.4872,0
841.7216,881.2088,860.6594,856.2271,854.6154,0
811.5018,881.2088,867.5092,828.8278,842.1245,0
830.4396,876.3736,859.8535,848.1685,826.8132,0
885.2381,872.7473,846.1539,893.6996,825.2015,0
905.7875,878.3883,847.7656,905.7875,894.5055,0
861.0623,887.2527,861.8681,859.4506,875.9707,0
822.381,887.2527,865.0916,825.2015,855.0183,0
839.304,882.4176,863.0769,848.5714,814.7253,0
890.8792,876.3736,851.392,887.2527,848.9744,0
911.0256,875.9707,841.7216,898.9377,938.4249,0
865.8975,880,852.1978,856.6301,884.0293,0
821.1722,881.6117,862.2711,815.9341,848.9744,0
831.6484,879.597,854.6154,828.022,852.6007,0
877.9854,875.1649,842.5275,869.5238,828.022,0
904.1758,874.3589,843.7363,894.1025,914.652,0
877.1795,885.6411,858.6447,864.2857,917.0696,0
829.6337,890.8792,867.9121,821.978,822.7839,0
824.7985,881.2088,859.0476,827.2161,812.3077,0
865.8975,875.1649,840.5128,868.315,880.8058,0
907.8022,878.3883,838.9011,898.5348,928.7546,0
881.6117,883.6264,857.033,873.1502,871.1356,0
824.3956,885.2381,871.1356,828.4249,823.1868,0
824.3956,880.403,866.3004,834.4689,824.3956,0
861.4652,873.5531,855.4213,871.5385,834.8718,0
901.3553,872.7473,848.5714,905.3846,901.7582,0
884.4323,880.403,856.2271,886.4469,899.3406,0
825.6044,885.6411,868.315,836.8865,844.1392,0
821.978,882.8205,866.7033,829.6337,825.6044,0
858.2418,877.1795,851.7949,863.0769,872.3443,0
898.1319,875.1649,840.1099,898.9377,935.2015,0
893.6996,882.8205,851.7949,888.8644,898.1319,0
839.304,886.0439,865.4945,839.304,834.4689,0
823.1868,881.2088,865.8975,829.2308,814.3223,0
859.0476,875.1649,858.6447,862.674,799.8168,0
907.3993,875.1649,849.3773,902.967,883.2234,0
902.5641,881.6117,853.4066,893.2967,918.6813,0
840.9158,884.8351,867.1062,839.707,817.9487,0
815.9341,881.2088,869.1208,823.5897,818.7546,0
842.1245,877.9854,856.6301,857.033,840.5128,0
892.0879,875.1649,846.1539,898.5348,915.8608,0
899.7436,877.9854,849.3773,891.685,942.8571,0
848.1685,886.8498,863.8828,850.1832,844.1392,0
816.337,888.8644,869.5238,831.2454,835.2747,0
837.6923,882.8205,862.2711,858.6447,842.1245,0
891.685,879.597,850.989,902.1612,857.4359,0
904.1758,882.0146,854.2125,905.7875,872.3443,0
861.8681,886.4469,866.7033,865.4945,854.6154,0
825.2015,890.0732,866.3004,824.7985,863.0769,0
834.0659,886.4469,860.2564,836.8865,817.9487,0
888.0586,883.6264,852.6007,888.4615,850.1832,0
908.608,892.4908,849.3773,896.9231,911.4286,0
862.2711,903.7729,861.4652,845.7509,923.5165,0
819.9634,902.967,872.3443,812.3077,880,0
831.2454,897.326,863.0769,825.6044,844.1392,0
872.7473,893.6996,849.3773,865.8975,886.4469,0
890.8792,894.1025,855.4213,883.2234,906.9963,0
855.4213,899.3406,869.1208,852.6007,873.5531,1
807.4725,901.7582,876.7766,814.7253,838.9011,1
816.7399,901.3553,871.5385,819.9634,786.5201,1
873.5531,900.1465,857.8388,865.0916,809.8901,1
913.8461,908.2051,852.1978,899.3406,919.0842,1
884.8351,919.0842,870.7326,871.5385,909.8168,1
829.6337,917.8755,877.5824,821.5751,858.2418,1
819.1575,905.3846,860.6594,820.3663,877.9854,1
869.5238,914.2491,867.5092,870.7326,810.696,1
929.9634,925.1282,871.5385,915.8608,826.8132,1
902.967,912.2344,876.3736,886.0439,859.0476,1
841.3187,919.4872,884.0293,840.9158,796.1905,1
847.7656,945.6777,877.5824,853.4066,800.6227,1
877.1795,952.1245,880,874.7619,815.5311,1
900.9524,954.9451,886.4469,893.6996,901.3553,1
877.5824,961.7949,888.8644,871.9414,888.4615,1
849.3773,977.5092,937.619,843.3333,776.8498,1
875.9707,981.1356,959.3773,877.5824,786.9231,1
859.8535,946.0806,924.7253,863.0769,828.4249,1
881.2088,955.348,943.663,861.8681,902.5641,1
896.5201,969.4506,975.0916,867.9121,917.0696,1
853.4066,973.4799,998.0586,832.0513,823.5897,1
847.7656,960.1832,999.2674,827.2161,788.1319,1
921.0989,958.5714,969.0476,909.011,821.978,1
1001.685,942.8571,959.7802,985.5677,907.3993,1
968.6447,930.3663,973.8828,946.0806,947.2894,1
954.1392,1052.454,1003.297,950.5128,839.304,1
950.5128,1075.018,962.1978,958.9744,765.5677,1
872.7473,981.9414,951.7216,869.1208,825.2015,1
883.6264,983.1502,1021.429,871.9414,921.0989,1
902.5641,984.7619,1053.663,882.4176,943.663,1
844.9451,960.1832,1035.934,837.2894,894.9084,1
804.652,929.5604,992.8205,811.5018,874.7619,1
813.5165,893.6996,963.0037,824.7985,869.9268,1
864.2857,865.8975,920.696,886.4469,884.8351,1
867.9121,852.1978,897.326,898.1319,914.652,1
758.718,809.0842,880.403,788.1319,869.5238,1
667.6557,766.3736,866.3004,715.6044,810.696,1
622.5275,720.4396,837.6923,686.1905,809.4872,1
580.6227,653.9561,783.2967,634.6154,837.6923,1
497.619,562.0879,715.6044,551.2088,914.652,1
368.2784,465.3846,666.0439,421.0623,921.0989,1
263.5165,402.9304,662.8205,317.5092,883.6264,1
237.326,355.7875,642.674,301.7949,848.9744,1
263.9194,340.0733,610.4396,325.9707,868.718,1
284.0659,341.282,589.0842,331.6117,956.9597,1
259.0843,343.6996,601.1722,307.033,896.5201,1
217.1795,359.4139,630.5861,295.348,805.8608,1
241.3553,380.3663,648.315,330.8058,842.1245,1
315.0916,408.1685,643.8828,392.8571,860.2564,1
369.8901,424.6887,647.9121,446.0439,895.7143,1
364.2491,437.1795,689.8168,440,924.3223,1
338.4615,476.6667,713.1868,411.7949,901.3553,1
359.8169,510.1099,715.6044,437.1795,896.1172,1
412.6007,528.2418,732.5275,492.7839,867.5092,1
473.4432,541.9414,738.9744,541.1356,929.5604,1
477.4725,558.4615,760.3297,539.1208,980.3297,1
435.9707,576.5934,800.2198,507.2894,883.2234,1
453.2967,591.9048,811.5018,527.033,816.7399,1
509.707,606.8132,817.5458,587.8755,867.1062,1
565.7143,621.3187,824.3956,634.6154,927.5458,1
579.4139,639.4506,838.0952,640.6594,922.3077,1
537.1062,654.3589,855.4213,610.8425,855.8242,1
536.3004,663.6264,850.1832,609.6337,819.1575,1
586.6667,671.282,832.8571,653.9561,872.7473,1
653.9561,678.9377,819.9634,708.3516,902.967,1
664.8351,691.4286,815.5311,713.1868,907.3993,1
616.0806,705.9341,817.5458,668.4615,863.4799,1
601.978,713.9927,814.7253,654.7619,871.5385,1
635.4213,711.5751,799.4139,688.2051,886.4469,1
698.2784,713.1868,782.8938,741.7949,886.0439,1
718.022,719.6337,781.685,745.8242,921.0989,1
675.3113,724.0659,790.9524,703.9194,882.4176,1
655.1649,728.9011,795.7875,693.8461,801.4286,1
683.3699,732.5275,782.8938,725.2747,812.7106,1
742.6007,732.9304,760.7326,777.2527,883.2234,1
761.5385,738.1685,769.1942,797.8022,904.5787,1
720.8425,748.2418,796.9963,756.7033,822.7839,1
692.6374,750.2564,782.8938,729.707,810.293,1
720.0366,747.033,761.1356,757.9121,855.0183,1
783.6996,750.2564,770,809.0842,894.1025,1
822.381,766.7766,781.685,833.663,908.2051,1
783.2967,784.9084,796.5934,807.8755,846.5568,1
748.2418,795.3846,805.8608,788.5348,805.4579,1
776.4469,799.011,801.8315,813.5165,821.978,1
830.8425,800.2198,791.7582,859.0476,841.7216,1
868.718,806.6667,790.9524,881.6117,886.8498,1
837.2894,815.1282,805.4579,847.3626,872.7473,1
792.967,819.9634,816.337,810.293,798.608,1
806.2637,826.0073,816.7399,834.8718,836.0806,1
853.8095,827.619,803.8461,878.3883,872.3443,1
894.9084,827.619,806.6667,899.7436,881.2088,1
872.7473,840.5128,832.0513,878.3883,878.7912,1
826.4103,851.392,841.7216,839.707,801.0256,1
836.8865,850.5861,839.304,851.7949,786.1172,1
882.4176,850.5861,825.2015,887.2527,799.8168,1
917.8755,853.4066,815.1282,914.2491,881.6117,1
894.5055,847.7656,827.2161,892.4908,892.0879,1
838.0952,853.0037,838.4982,841.7216,824.7985,1
830.8425,857.8388,833.663,843.3333,827.619,1
872.3443,854.2125,826.8132,877.5824,776.8498,1
919.4872,854.2125,826.8132,901.3553,856.6301,1
910.6227,859.8535,822.381,888.0586,909.011,1
848.5714,865.8975,829.6337,839.707,826.8132,1
840.1099,862.2711,854.2125,840.9158,815.1282,1
893.6996,853.4066,863.0769,893.6996,844.5421,1
940.4396,854.6154,846.5568,927.1429,894.1025,1
923.5165,866.3004,845.7509,902.5641,915.0549,1
866.3004,876.3736,859.8535,851.7949,859.4506,1
829.6337,859.8535,850.1832,826.0073,885.2381,1
849.7802,839.707,830.8425,842.5275,884.0293,1
897.326,834.8718,812.7106,877.9854,873.1502,1
901.3553,836.0806,806.2637,873.9561,921.0989,1
844.5421,843.7363,819.1575,829.6337,879.1942,1
813.5165,843.3333,826.0073,819.9634,863.0769,1
844.1392,837.2894,819.9634,846.1539,825.6044,1
896.5201,836.0806,809.8901,885.6411,866.3004,1
907.3993,843.7363,811.5018,892.4908,942.0513,1
847.3626,844.5421,826.0073,840.1099,873.5531,1
809.8901,841.3187,828.4249,816.337,854.2125,1
832.0513,841.3187,819.5604,844.5421,850.1832,1
890.0732,837.2894,818.7546,883.6264,867.1062,1
904.1758,841.3187,823.5897,888.8644,869.9268,1
850.1832,847.3626,833.663,842.1245,855.4213,1
821.5751,848.9744,847.7656,812.7106,848.1685,1
842.5275,850.989,847.7656,834.4689,821.5751,1
887.2527,846.9597,831.6484,877.1795,870.3297,1
910.6227,846.9597,826.0073,897.7289,923.1135,1
869.1208,861.0623,832.0513,864.6887,854.6154,1
819.1575,862.2711,840.1099,818.3516,846.9597,1
828.4249,857.8388,847.3626,832.4542,833.663,1
885.2381,865.0916,849.7802,882.8205,798.2051,1
920.293,871.9414,848.9744,905.7875,861.8681,1
884.8351,880,857.4359,878.3883,859.8535,1
841.3187,886.8498,871.5385,840.5128,844.1392,1
852.1978,882.4176,876.3736,854.6154,858.6447,1
898.9377,880.403,862.674,895.7143,853.4066,1
936.4103,889.6703,850.1832,918.6813,897.326,1
909.011,896.1172,865.4945,889.2674,895.7143,1
849.7802,897.7289,891.685,848.1685,857.4359,1
852.6007,894.9084,900.5494,857.4359,826.4103,1
895.3113,891.685,892.0879,891.685,795.3846,1
930.7692,890.0732,881.6117,923.5165,899.7436,1
912.6374,892.0879,889.6703,909.011,870.7326,1
854.2125,895.3113,900.9524,858.2418,792.967,1
850.5861,893.2967,894.5055,856.2271,812.3077,1
886.8498,888.4615,881.2088,892.4908,776.8498,1
933.9927,882.0146,873.5531,927.9487,861.4652,1
926.7399,888.0586,880.8058,919.4872,912.2344,1
866.7033,896.5201,891.282,869.9268,832.8571,1
855.0183,890.0732,892.8938,859.0476,817.9487,1
884.4323,889.2674,883.2234,887.6557,842.9304,1
939.6337,890.8792,874.7619,929.1575,892.0879,1
929.9634,883.6264,883.6264,921.9048,948.9011,1
848.1685,889.6703,900.5494,859.0476,816.7399,1
821.1722,891.685,891.685,836.0806,751.8681,1
852.6007,878.3883,876.3736,865.4945,850.5861,1
909.4139,876.3736,867.5092,908.2051,912.6374,1
923.9194,883.2234,873.5531,913.4432,898.9377,1
875.5677,888.4615,888.0586,869.1208,804.652,1
846.9597,888.0586,886.0439,850.1832,819.5604,1
858.6447,876.3736,871.1356,867.5092,861.8681,1
906.5934,867.9121,854.6154,906.1905,924.7253,1
919.4872,873.1502,857.4359,911.4286,980.7326,1
864.6887,876.3736,870.3297,854.6154,892.8938,1
823.1868,870.7326,872.7473,823.5897,819.5604,1
838.0952,868.315,865.0916,847.7656,821.978,1
894.9084,863.4799,855.0183,893.6996,874.7619,1
914.2491,865.0916,855.8242,907.8022,963.4066,1
866.7033,872.7473,867.5092,863.4799,926.7399,1
821.1722,872.7473,867.1062,827.619,848.1685,1
831.6484,867.1062,859.0476,842.9304,884.0293,1
885.2381,860.2564,851.392,884.8351,906.9963,1
913.4432,862.2711,847.7656,906.5934,897.7289,1
873.5531,870.3297,856.6301,871.9414,872.7473,1
817.9487,869.1208,869.1208,831.6484,838.9011,1
821.978,865.0916,862.674,840.5128,801.4286,1
878.7912,865.8975,842.9304,879.1942,799.8168,1
915.0549,868.315,836.8865,901.7582,886.8498,1
877.1795,874.7619,854.2125,870.3297,886.8498,1
816.7399,871.1356,869.9268,824.3956,818.3516,1
807.8755,855.4213,855.4213,826.8132,840.9158,1
850.5861,851.7949,840.9158,859.8535,862.2711,1
897.7289,855.8242,834.4689,886.8498,902.1612,1
879.1942,861.4652,836.0806,869.9268,864.6887,1
815.1282,861.8681,848.5714,821.1722,815.9341,1
811.0989,860.2564,857.4359,818.7546,839.707,1
850.989,855.8242,849.3773,856.2271,868.718,1
892.8938,851.392,837.2894,886.0439,952.1245,1
877.9854,861.8681,841.7216,867.1062,921.0989,1
816.337,869.1208,855.4213,821.978,849.3773,1
805.8608,866.7033,860.2564,820.7692,833.663,1
839.304,860.6594,855.4213,850.989,821.1722,1
890.8792,857.4359,846.5568,885.2381,879.1942,1
883.6264,863.4799,850.989,876.3736,912.2344,1
815.9341,865.0916,863.4799,824.3956,821.1722,1
794.9817,858.6447,850.5861,807.8755,832.0513,1
829.2308,857.4359,839.304,839.304,905.3846,1
884.4323,860.2564,842.9304,878.7912,936.8132,1
886.4469,864.2857,850.5861,870.7326,881.2088,1
826.8132,870.3297,858.2418,825.2015,804.652,1
799.011,865.8975,858.2418,813.5165,828.8278,1
826.0073,860.2564,855.8242,836.4835,859.4506,1
883.6264,861.8681,845.348,878.7912,899.7436,1
890.8792,863.4799,841.7216,883.6264,916.2637,1
835.6777,871.1356,850.989,830.8425,871.5385,1
812.7106,870.3297,851.7949,818.3516,850.989,1
823.9927,857.4359,850.1832,836.0806,840.9158,1
863.4799,850.1832,847.7656,863.4799,855.8242,1
880,855.0183,841.7216,875.5677,908.2051,1
828.4249,861.0623,849.7802,830.8425,909.4139,1
790.9524,859.4506,861.0623,807.4725,864.6887,1
810.696,856.6301,857.033,827.619,832.0513,1
867.1062,855.4213,848.9744,864.6887,886.0439,1
898.1319,857.4359,849.7802,881.6117,892.8938,1
851.7949,864.6887,855.8242,848.5714,815.1282,1
799.4139,867.9121,866.7033,817.9487,792.967,1
805.0549,861.4652,861.0623,822.7839,818.3516,1
851.392,853.0037,843.3333,854.6154,884.8351,1
886.8498,853.4066,838.9011,880.8058,917.4725,1
853.0037,859.4506,845.348,855.4213,898.9377,1
802.6374,862.2711,857.8388,815.9341,844.5421,1
805.4579,854.6154,855.8242,819.1575,840.1099,1
849.7802,847.3626,837.2894,854.2125,871.5385,1
892.8938,851.7949,832.8571,878.7912,894.5055,1
866.7033,859.8535,853.4066,855.0183,886.4469,1
804.2491,861.4652,862.674,815.1282,838.4982,1
806.6667,861.4652,854.2125,820.3663,851.392,1
851.7949,856.6301,844.9451,857.033,877.5824,1
890.8792,852.6007,830.8425,883.6264,923.9194,1
873.1502,858.6447,836.4835,867.9121,905.7875,1
809.0842,862.674,853.8095,821.1722,858.2418,1
797.8022,856.2271,848.5714,810.293,859.4506,1
836.0806,849.3773,841.3187,843.3333,860.2564,1
880,845.7509,836.0806,874.3589,915.0549,1
871.5385,849.7802,840.5128,853.4066,916.6667,1
805.4579,855.8242,848.9744,804.652,892.4908,1
786.5201,848.1685,845.348,803.0403,857.033,1
823.5897,842.1245,837.2894,828.4249,753.0769,1
869.5238,843.3333,830.8425,856.6301,833.2601,1
868.315,848.9744,835.2747,857.4359,887.6557,1
816.337,857.033,846.9597,819.1575,790.1465,1
792.1612,853.4066,845.348,806.2637,815.1282,1
815.9341,848.1685,840.9158,832.0513,833.2601,1
